LabVIEW Measurement	
Writer_Version	2
Reader_Version	2
Separator	Tab
Decimal_Separator	.
Multi_Headings	No
X_Columns	One
Time_Pref	Absolute
Operator	biomech-dyno
Date	2023/05/23
Time	16:26:31.1792034999998606061
***End_of_Header***	
	
Channels	1	
Samples	10	
Date	2023/05/23	
Time	16:30:46.0764578999999138072	
X_Dimension	Time	
X0	0.0000000000000000E+0	
Delta_X	0.010000	
***End_of_Header***		
X_Value	Untitled	Comment
0.000000	24.863534
0.010000	24.863534
0.020000	24.863534
0.030000	24.863534
0.040000	24.863534
0.050000	24.863534
0.060000	24.863534
0.070000	24.863534
0.080000	24.863534
0.090000	24.863534
0.100000	24.863534
0.110000	24.863534
0.120000	24.863534
0.130000	24.863534
0.140000	24.863534
0.150000	24.863534
0.160000	24.863534
0.170000	24.863534
0.180000	24.863534
0.190000	24.863534
0.200000	24.863534
0.210000	24.863534
0.220000	24.863534
0.230000	24.863534
0.240000	24.863534
0.250000	24.863534
0.260000	24.863534
0.270000	24.863534
0.280000	24.863534
0.290000	24.863534
0.300000	24.863534
0.310000	24.863534
0.320000	24.863534
0.330000	24.863534
0.340000	24.863534
0.350000	24.863534
0.360000	24.863534
0.370000	24.863534
0.380000	24.863534
0.390000	24.863534
0.400000	24.863534
0.410000	24.863534
0.420000	24.863534
0.430000	24.863534
0.440000	24.863534
0.450000	24.863534
0.460000	24.863534
0.470000	24.863534
0.480000	24.863534
0.490000	24.863534
0.500000	24.887111
0.510000	24.887111
0.520000	24.887111
0.530000	24.887111
0.540000	24.887111
0.550000	24.887111
0.560000	24.887111
0.570000	24.887111
0.580000	24.887111
0.590000	24.887111
0.600000	24.887111
0.610000	24.887111
0.620000	24.887111
0.630000	24.887111
0.640000	24.887111
0.650000	24.887111
0.660000	24.887111
0.670000	24.887111
0.680000	24.887111
0.690000	24.887111
0.700000	24.887111
0.710000	24.887111
0.720000	24.887111
0.730000	24.887111
0.740000	24.887111
0.750000	24.887111
0.760000	24.887111
0.770000	24.887111
0.780000	24.887111
0.790000	24.887111
0.800000	24.887111
0.810000	24.887111
0.820000	24.887111
0.830000	24.887111
0.840000	24.887111
0.850000	24.887111
0.860000	24.887111
0.870000	24.887111
0.880000	24.887111
0.890000	24.887111
0.900000	24.887111
0.910000	24.887111
0.920000	24.887111
0.930000	24.887111
0.940000	24.887111
0.950000	24.887111
0.960000	24.887111
0.970000	24.887111
0.980000	24.887111
0.990000	24.887111
1.000000	25.110214
1.010000	25.110214
1.020000	25.110214
1.030000	25.110214
1.040000	25.110214
1.050000	25.110214
1.060000	25.110214
1.070000	25.110214
1.080000	25.110214
1.090000	25.110214
1.100000	25.110214
1.110000	25.110214
1.120000	25.110214
1.130000	25.110214
1.140000	25.110214
1.150000	25.110214
1.160000	25.110214
1.170000	25.110214
1.180000	25.110214
1.190000	25.110214
1.200000	25.110214
1.210000	25.110214
1.220000	25.110214
1.230000	25.110214
1.240000	25.110214
1.250000	25.110214
1.260000	25.110214
1.270000	25.110214
1.280000	25.110214
1.290000	25.110214
1.300000	25.110214
1.310000	25.110214
1.320000	25.110214
1.330000	25.110214
1.340000	25.110214
1.350000	25.110214
1.360000	25.110214
1.370000	25.110214
1.380000	25.110214
1.390000	25.110214
1.400000	25.110214
1.410000	25.110214
1.420000	25.110214
1.430000	25.110214
1.440000	25.110214
1.450000	25.110214
1.460000	25.110214
1.470000	25.110214
1.480000	25.110214
1.490000	25.110214
1.500000	25.610771
1.510000	25.610771
1.520000	25.610771
1.530000	25.610771
1.540000	25.610771
1.550000	25.610771
1.560000	25.610771
1.570000	25.610771
1.580000	25.610771
1.590000	25.610771
1.600000	25.610771
1.610000	25.610771
1.620000	25.610771
1.630000	25.610771
1.640000	25.610771
1.650000	25.610771
1.660000	25.610771
1.670000	25.610771
1.680000	25.610771
1.690000	25.610771
1.700000	25.610771
1.710000	25.610771
1.720000	25.610771
1.730000	25.610771
1.740000	25.610771
1.750000	25.610771
1.760000	25.610771
1.770000	25.610771
1.780000	25.610771
1.790000	25.610771
1.800000	25.610771
1.810000	25.610771
1.820000	25.610771
1.830000	25.610771
1.840000	25.610771
1.850000	25.610771
1.860000	25.610771
1.870000	25.610771
1.880000	25.610771
1.890000	25.610771
1.900000	25.610771
1.910000	25.610771
1.920000	25.610771
1.930000	25.610771
1.940000	25.610771
1.950000	25.610771
1.960000	25.610771
1.970000	25.610771
1.980000	25.610771
1.990000	25.610771
2.000000	26.344388
2.010000	26.344388
2.020000	26.344388
2.030000	26.344388
2.040000	26.344388
2.050000	26.344388
2.060000	26.344388
2.070000	26.344388
2.080000	26.344388
2.090000	26.344388
2.100000	26.344388
2.110000	26.344388
2.120000	26.344388
2.130000	26.344388
2.140000	26.344388
2.150000	26.344388
2.160000	26.344388
2.170000	26.344388
2.180000	26.344388
2.190000	26.344388
2.200000	26.344388
2.210000	26.344388
2.220000	26.344388
2.230000	26.344388
2.240000	26.344388
2.250000	26.344388
2.260000	26.344388
2.270000	26.344388
2.280000	26.344388
2.290000	26.344388
2.300000	26.344388
2.310000	26.344388
2.320000	26.344388
2.330000	26.344388
2.340000	26.344388
2.350000	26.344388
2.360000	26.344388
2.370000	26.344388
2.380000	26.344388
2.390000	26.344388
2.400000	26.344388
2.410000	26.344388
2.420000	26.344388
2.430000	26.344388
2.440000	26.344388
2.450000	26.344388
2.460000	26.344388
2.470000	26.344388
2.480000	26.344388
2.490000	26.344388
2.500000	27.252170
2.510000	27.252170
2.520000	27.252170
2.530000	27.252170
2.540000	27.252170
2.550000	27.252170
2.560000	27.252170
2.570000	27.252170
2.580000	27.252170
2.590000	27.252170
2.600000	27.252170
2.610000	27.252170
2.620000	27.252170
2.630000	27.252170
2.640000	27.252170
2.650000	27.252170
2.660000	27.252170
2.670000	27.252170
2.680000	27.252170
2.690000	27.252170
2.700000	27.252170
2.710000	27.252170
2.720000	27.252170
2.730000	27.252170
2.740000	27.252170
2.750000	27.252170
2.760000	27.252170
2.770000	27.252170
2.780000	27.252170
2.790000	27.252170
2.800000	27.252170
2.810000	27.252170
2.820000	27.252170
2.830000	27.252170
2.840000	27.252170
2.850000	27.252170
2.860000	27.252170
2.870000	27.252170
2.880000	27.252170
2.890000	27.252170
2.900000	27.252170
2.910000	27.252170
2.920000	27.252170
2.930000	27.252170
2.940000	27.252170
2.950000	27.252170
2.960000	27.252170
2.970000	27.252170
2.980000	27.252170
2.990000	27.252170
3.000000	28.299703
3.010000	28.299703
3.020000	28.299703
3.030000	28.299703
3.040000	28.299703
3.050000	28.299703
3.060000	28.299703
3.070000	28.299703
3.080000	28.299703
3.090000	28.299703
3.100000	28.299703
3.110000	28.299703
3.120000	28.299703
3.130000	28.299703
3.140000	28.299703
3.150000	28.299703
3.160000	28.299703
3.170000	28.299703
3.180000	28.299703
3.190000	28.299703
3.200000	28.299703
3.210000	28.299703
3.220000	28.299703
3.230000	28.299703
3.240000	28.299703
3.250000	28.299703
3.260000	28.299703
3.270000	28.299703
3.280000	28.299703
3.290000	28.299703
3.300000	28.299703
3.310000	28.299703
3.320000	28.299703
3.330000	28.299703
3.340000	28.299703
3.350000	28.299703
3.360000	28.299703
3.370000	28.299703
3.380000	28.299703
3.390000	28.299703
3.400000	28.299703
3.410000	28.299703
3.420000	28.299703
3.430000	28.299703
3.440000	28.299703
3.450000	28.299703
3.460000	28.299703
3.470000	28.299703
3.480000	28.299703
3.490000	28.299703
3.500000	29.395845
3.510000	29.395845
3.520000	29.395845
3.530000	29.395845
3.540000	29.395845
3.550000	29.395845
3.560000	29.395845
3.570000	29.395845
3.580000	29.395845
3.590000	29.395845
3.600000	29.395845
3.610000	29.395845
3.620000	29.395845
3.630000	29.395845
3.640000	29.395845
3.650000	29.395845
3.660000	29.395845
3.670000	29.395845
3.680000	29.395845
3.690000	29.395845
3.700000	29.395845
3.710000	29.395845
3.720000	29.395845
3.730000	29.395845
3.740000	29.395845
3.750000	29.395845
3.760000	29.395845
3.770000	29.395845
3.780000	29.395845
3.790000	29.395845
3.800000	29.395845
3.810000	29.395845
3.820000	29.395845
3.830000	29.395845
3.840000	29.395845
3.850000	29.395845
3.860000	29.395845
3.870000	29.395845
3.880000	29.395845
3.890000	29.395845
3.900000	29.395845
3.910000	29.395845
3.920000	29.395845
3.930000	29.395845
3.940000	29.395845
3.950000	29.395845
3.960000	29.395845
3.970000	29.395845
3.980000	29.395845
3.990000	29.395845
4.000000	30.288483
4.010000	30.288483
4.020000	30.288483
4.030000	30.288483
4.040000	30.288483
4.050000	30.288483
4.060000	30.288483
4.070000	30.288483
4.080000	30.288483
4.090000	30.288483
4.100000	30.288483
4.110000	30.288483
4.120000	30.288483
4.130000	30.288483
4.140000	30.288483
4.150000	30.288483
4.160000	30.288483
4.170000	30.288483
4.180000	30.288483
4.190000	30.288483
4.200000	30.288483
4.210000	30.288483
4.220000	30.288483
4.230000	30.288483
4.240000	30.288483
4.250000	30.288483
4.260000	30.288483
4.270000	30.288483
4.280000	30.288483
4.290000	30.288483
4.300000	30.288483
4.310000	30.288483
4.320000	30.288483
4.330000	30.288483
4.340000	30.288483
4.350000	30.288483
4.360000	30.288483
4.370000	30.288483
4.380000	30.288483
4.390000	30.288483
4.400000	30.288483
4.410000	30.288483
4.420000	30.288483
4.430000	30.288483
4.440000	30.288483
4.450000	30.288483
4.460000	30.288483
4.470000	30.288483
4.480000	30.288483
4.490000	30.288483
4.500000	30.933869
4.510000	30.933869
4.520000	30.933869
4.530000	30.933869
4.540000	30.933869
4.550000	30.933869
4.560000	30.933869
4.570000	30.933869
4.580000	30.933869
4.590000	30.933869
4.600000	30.933869
4.610000	30.933869
4.620000	30.933869
4.630000	30.933869
4.640000	30.933869
4.650000	30.933869
4.660000	30.933869
4.670000	30.933869
4.680000	30.933869
4.690000	30.933869
4.700000	30.933869
4.710000	30.933869
4.720000	30.933869
4.730000	30.933869
4.740000	30.933869
4.750000	30.933869
4.760000	30.933869
4.770000	30.933869
4.780000	30.933869
4.790000	30.933869
4.800000	30.933869
4.810000	30.933869
4.820000	30.933869
4.830000	30.933869
4.840000	30.933869
4.850000	30.933869
4.860000	30.933869
4.870000	30.933869
4.880000	30.933869
4.890000	30.933869
4.900000	30.933869
4.910000	30.933869
4.920000	30.933869
4.930000	30.933869
4.940000	30.933869
4.950000	30.933869
4.960000	30.933869
4.970000	30.933869
4.980000	30.933869
4.990000	30.933869
5.000000	31.374384
5.010000	31.374384
5.020000	31.374384
5.030000	31.374384
5.040000	31.374384
5.050000	31.374384
5.060000	31.374384
5.070000	31.374384
5.080000	31.374384
5.090000	31.374384
5.100000	31.374384
5.110000	31.374384
5.120000	31.374384
5.130000	31.374384
5.140000	31.374384
5.150000	31.374384
5.160000	31.374384
5.170000	31.374384
5.180000	31.374384
5.190000	31.374384
5.200000	31.374384
5.210000	31.374384
5.220000	31.374384
5.230000	31.374384
5.240000	31.374384
5.250000	31.374384
5.260000	31.374384
5.270000	31.374384
5.280000	31.374384
5.290000	31.374384
5.300000	31.374384
5.310000	31.374384
5.320000	31.374384
5.330000	31.374384
5.340000	31.374384
5.350000	31.374384
5.360000	31.374384
5.370000	31.374384
5.380000	31.374384
5.390000	31.374384
5.400000	31.374384
5.410000	31.374384
5.420000	31.374384
5.430000	31.374384
5.440000	31.374384
5.450000	31.374384
5.460000	31.374384
5.470000	31.374384
5.480000	31.374384
5.490000	31.374384
5.500000	31.663310
5.510000	31.663310
5.520000	31.663310
5.530000	31.663310
5.540000	31.663310
5.550000	31.663310
5.560000	31.663310
5.570000	31.663310
5.580000	31.663310
5.590000	31.663310
5.600000	31.663310
5.610000	31.663310
5.620000	31.663310
5.630000	31.663310
5.640000	31.663310
5.650000	31.663310
5.660000	31.663310
5.670000	31.663310
5.680000	31.663310
5.690000	31.663310
5.700000	31.663310
5.710000	31.663310
5.720000	31.663310
5.730000	31.663310
5.740000	31.663310
5.750000	31.663310
5.760000	31.663310
5.770000	31.663310
5.780000	31.663310
5.790000	31.663310
5.800000	31.663310
5.810000	31.663310
5.820000	31.663310
5.830000	31.663310
5.840000	31.663310
5.850000	31.663310
5.860000	31.663310
5.870000	31.663310
5.880000	31.663310
5.890000	31.663310
5.900000	31.663310
5.910000	31.663310
5.920000	31.663310
5.930000	31.663310
5.940000	31.663310
5.950000	31.663310
5.960000	31.663310
5.970000	31.663310
5.980000	31.663310
5.990000	31.663310
6.000000	31.839556
6.010000	31.839556
6.020000	31.839556
6.030000	31.839556
6.040000	31.839556
6.050000	31.839556
6.060000	31.839556
6.070000	31.839556
6.080000	31.839556
6.090000	31.839556
6.100000	31.839556
6.110000	31.839556
6.120000	31.839556
6.130000	31.839556
6.140000	31.839556
6.150000	31.839556
6.160000	31.839556
6.170000	31.839556
6.180000	31.839556
6.190000	31.839556
6.200000	31.839556
6.210000	31.839556
6.220000	31.839556
6.230000	31.839556
6.240000	31.839556
6.250000	31.839556
6.260000	31.839556
6.270000	31.839556
6.280000	31.839556
6.290000	31.839556
6.300000	31.839556
6.310000	31.839556
6.320000	31.839556
6.330000	31.839556
6.340000	31.839556
6.350000	31.839556
6.360000	31.839556
6.370000	31.839556
6.380000	31.839556
6.390000	31.839556
6.400000	31.839556
6.410000	31.839556
6.420000	31.839556
6.430000	31.839556
6.440000	31.839556
6.450000	31.839556
6.460000	31.839556
6.470000	31.839556
6.480000	31.839556
6.490000	31.839556
6.500000	31.926242
6.510000	31.926242
6.520000	31.926242
6.530000	31.926242
6.540000	31.926242
6.550000	31.926242
6.560000	31.926242
6.570000	31.926242
6.580000	31.926242
6.590000	31.926242
6.600000	31.926242
6.610000	31.926242
6.620000	31.926242
6.630000	31.926242
6.640000	31.926242
6.650000	31.926242
6.660000	31.926242
6.670000	31.926242
6.680000	31.926242
6.690000	31.926242
6.700000	31.926242
6.710000	31.926242
6.720000	31.926242
6.730000	31.926242
6.740000	31.926242
6.750000	31.926242
6.760000	31.926242
6.770000	31.926242
6.780000	31.926242
6.790000	31.926242
6.800000	31.926242
6.810000	31.926242
6.820000	31.926242
6.830000	31.926242
6.840000	31.926242
6.850000	31.926242
6.860000	31.926242
6.870000	31.926242
6.880000	31.926242
6.890000	31.926242
6.900000	31.926242
6.910000	31.926242
6.920000	31.926242
6.930000	31.926242
6.940000	31.926242
6.950000	31.926242
6.960000	31.926242
6.970000	31.926242
6.980000	31.926242
6.990000	31.926242
7.000000	31.951677
7.010000	31.951677
7.020000	31.951677
7.030000	31.951677
7.040000	31.951677
7.050000	31.951677
7.060000	31.951677
7.070000	31.951677
7.080000	31.951677
7.090000	31.951677
7.100000	31.951677
7.110000	31.951677
7.120000	31.951677
7.130000	31.951677
7.140000	31.951677
7.150000	31.951677
7.160000	31.951677
7.170000	31.951677
7.180000	31.951677
7.190000	31.951677
7.200000	31.951677
7.210000	31.951677
7.220000	31.951677
7.230000	31.951677
7.240000	31.951677
7.250000	31.951677
7.260000	31.951677
7.270000	31.951677
7.280000	31.951677
7.290000	31.951677
7.300000	31.951677
7.310000	31.951677
7.320000	31.951677
7.330000	31.951677
7.340000	31.951677
7.350000	31.951677
7.360000	31.951677
7.370000	31.951677
7.380000	31.951677
7.390000	31.951677
7.400000	31.951677
7.410000	31.951677
7.420000	31.951677
7.430000	31.951677
7.440000	31.951677
7.450000	31.951677
7.460000	31.951677
7.470000	31.951677
7.480000	31.951677
7.490000	31.951677
7.500000	31.935591
7.510000	31.935591
7.520000	31.935591
7.530000	31.935591
7.540000	31.935591
7.550000	31.935591
7.560000	31.935591
7.570000	31.935591
7.580000	31.935591
7.590000	31.935591
7.600000	31.935591
7.610000	31.935591
7.620000	31.935591
7.630000	31.935591
7.640000	31.935591
7.650000	31.935591
7.660000	31.935591
7.670000	31.935591
7.680000	31.935591
7.690000	31.935591
7.700000	31.935591
7.710000	31.935591
7.720000	31.935591
7.730000	31.935591
7.740000	31.935591
7.750000	31.935591
7.760000	31.935591
7.770000	31.935591
7.780000	31.935591
7.790000	31.935591
7.800000	31.935591
7.810000	31.935591
7.820000	31.935591
7.830000	31.935591
7.840000	31.935591
7.850000	31.935591
7.860000	31.935591
7.870000	31.935591
7.880000	31.935591
7.890000	31.935591
7.900000	31.935591
7.910000	31.935591
7.920000	31.935591
7.930000	31.935591
7.940000	31.935591
7.950000	31.935591
7.960000	31.935591
7.970000	31.935591
7.980000	31.935591
7.990000	31.935591
8.000000	31.885810
8.010000	31.885810
8.020000	31.885810
8.030000	31.885810
8.040000	31.885810
8.050000	31.885810
8.060000	31.885810
8.070000	31.885810
8.080000	31.885810
8.090000	31.885810
8.100000	31.885810
8.110000	31.885810
8.120000	31.885810
8.130000	31.885810
8.140000	31.885810
8.150000	31.885810
8.160000	31.885810
8.170000	31.885810
8.180000	31.885810
8.190000	31.885810
8.200000	31.885810
8.210000	31.885810
8.220000	31.885810
8.230000	31.885810
8.240000	31.885810
8.250000	31.885810
8.260000	31.885810
8.270000	31.885810
8.280000	31.885810
8.290000	31.885810
8.300000	31.885810
8.310000	31.885810
8.320000	31.885810
8.330000	31.885810
8.340000	31.885810
8.350000	31.885810
8.360000	31.885810
8.370000	31.885810
8.380000	31.885810
8.390000	31.885810
8.400000	31.885810
8.410000	31.885810
8.420000	31.885810
8.430000	31.885810
8.440000	31.885810
8.450000	31.885810
8.460000	31.885810
8.470000	31.885810
8.480000	31.885810
8.490000	31.885810
8.500000	31.802568
8.510000	31.802568
8.520000	31.802568
8.530000	31.802568
8.540000	31.802568
8.550000	31.802568
8.560000	31.802568
8.570000	31.802568
8.580000	31.802568
8.590000	31.802568
8.600000	31.802568
8.610000	31.802568
8.620000	31.802568
8.630000	31.802568
8.640000	31.802568
8.650000	31.802568
8.660000	31.802568
8.670000	31.802568
8.680000	31.802568
8.690000	31.802568
8.700000	31.802568
8.710000	31.802568
8.720000	31.802568
8.730000	31.802568
8.740000	31.802568
8.750000	31.802568
8.760000	31.802568
8.770000	31.802568
8.780000	31.802568
8.790000	31.802568
8.800000	31.802568
8.810000	31.802568
8.820000	31.802568
8.830000	31.802568
8.840000	31.802568
8.850000	31.802568
8.860000	31.802568
8.870000	31.802568
8.880000	31.802568
8.890000	31.802568
8.900000	31.802568
8.910000	31.802568
8.920000	31.802568
8.930000	31.802568
8.940000	31.802568
8.950000	31.802568
8.960000	31.802568
8.970000	31.802568
8.980000	31.802568
8.990000	31.802568
9.000000	31.700089
9.010000	31.700089
9.020000	31.700089
9.030000	31.700089
9.040000	31.700089
9.050000	31.700089
9.060000	31.700089
9.070000	31.700089
9.080000	31.700089
9.090000	31.700089
9.100000	31.700089
9.110000	31.700089
9.120000	31.700089
9.130000	31.700089
9.140000	31.700089
9.150000	31.700089
9.160000	31.700089
9.170000	31.700089
9.180000	31.700089
9.190000	31.700089
9.200000	31.700089
9.210000	31.700089
9.220000	31.700089
9.230000	31.700089
9.240000	31.700089
9.250000	31.700089
9.260000	31.700089
9.270000	31.700089
9.280000	31.700089
9.290000	31.700089
9.300000	31.700089
9.310000	31.700089
9.320000	31.700089
9.330000	31.700089
9.340000	31.700089
9.350000	31.700089
9.360000	31.700089
9.370000	31.700089
9.380000	31.700089
9.390000	31.700089
9.400000	31.700089
9.410000	31.700089
9.420000	31.700089
9.430000	31.700089
9.440000	31.700089
9.450000	31.700089
9.460000	31.700089
9.470000	31.700089
9.480000	31.700089
9.490000	31.700089
9.500000	31.586103
9.510000	31.586103
9.520000	31.586103
9.530000	31.586103
9.540000	31.586103
9.550000	31.586103
9.560000	31.586103
9.570000	31.586103
9.580000	31.586103
9.590000	31.586103
9.600000	31.586103
9.610000	31.586103
9.620000	31.586103
9.630000	31.586103
9.640000	31.586103
9.650000	31.586103
9.660000	31.586103
9.670000	31.586103
9.680000	31.586103
9.690000	31.586103
9.700000	31.586103
9.710000	31.586103
9.720000	31.586103
9.730000	31.586103
9.740000	31.586103
9.750000	31.586103
9.760000	31.586103
