LabVIEW Measurement	
Writer_Version	2
Reader_Version	2
Separator	Tab
Decimal_Separator	.
Multi_Headings	No
X_Columns	One
Time_Pref	Absolute
Operator	biomech-dyno
Date	2023/05/23
Time	16:26:31.1792034999998606061
***End_of_Header***	
	
Channels	1	
Samples	10	
Date	2023/05/23	
Time	16:35:35.5080462999996903333	
X_Dimension	Time	
X0	0.0000000000000000E+0	
Delta_X	0.010000	
***End_of_Header***		
X_Value	Untitled	Comment
0.000000	25.116539
0.010000	25.116539
0.020000	25.116539
0.030000	25.116539
0.040000	25.116539
0.050000	25.116539
0.060000	25.116539
0.070000	25.116539
0.080000	25.116539
0.090000	25.116539
0.100000	25.116539
0.110000	25.116539
0.120000	25.116539
0.130000	25.116539
0.140000	25.116539
0.150000	25.116539
0.160000	25.116539
0.170000	25.116539
0.180000	25.116539
0.190000	25.116539
0.200000	25.116539
0.210000	25.116539
0.220000	25.116539
0.230000	25.116539
0.240000	25.116539
0.250000	25.116539
0.260000	25.116539
0.270000	25.116539
0.280000	25.116539
0.290000	25.116539
0.300000	25.116539
0.310000	25.116539
0.320000	25.116539
0.330000	25.116539
0.340000	25.116539
0.350000	25.116539
0.360000	25.116539
0.370000	25.116539
0.380000	25.116539
0.390000	25.116539
0.400000	25.116539
0.410000	25.116539
0.420000	25.116539
0.430000	25.116539
0.440000	25.116539
0.450000	25.116539
0.460000	25.116539
0.470000	25.116539
0.480000	25.116539
0.490000	25.116539
0.500000	25.186177
0.510000	25.186177
0.520000	25.186177
0.530000	25.186177
0.540000	25.186177
0.550000	25.186177
0.560000	25.186177
0.570000	25.186177
0.580000	25.186177
0.590000	25.186177
0.600000	25.186177
0.610000	25.186177
0.620000	25.186177
0.630000	25.186177
0.640000	25.186177
0.650000	25.186177
0.660000	25.186177
0.670000	25.186177
0.680000	25.186177
0.690000	25.186177
0.700000	25.186177
0.710000	25.186177
0.720000	25.186177
0.730000	25.186177
0.740000	25.186177
0.750000	25.186177
0.760000	25.186177
0.770000	25.186177
0.780000	25.186177
0.790000	25.186177
0.800000	25.186177
0.810000	25.186177
0.820000	25.186177
0.830000	25.186177
0.840000	25.186177
0.850000	25.186177
0.860000	25.186177
0.870000	25.186177
0.880000	25.186177
0.890000	25.186177
0.900000	25.186177
0.910000	25.186177
0.920000	25.186177
0.930000	25.186177
0.940000	25.186177
0.950000	25.186177
0.960000	25.186177
0.970000	25.186177
0.980000	25.186177
0.990000	25.186177
1.000000	25.959961
1.010000	25.959961
1.020000	25.959961
1.030000	25.959961
1.040000	25.959961
1.050000	25.959961
1.060000	25.959961
1.070000	25.959961
1.080000	25.959961
1.090000	25.959961
1.100000	25.959961
1.110000	25.959961
1.120000	25.959961
1.130000	25.959961
1.140000	25.959961
1.150000	25.959961
1.160000	25.959961
1.170000	25.959961
1.180000	25.959961
1.190000	25.959961
1.200000	25.959961
1.210000	25.959961
1.220000	25.959961
1.230000	25.959961
1.240000	25.959961
1.250000	25.959961
1.260000	25.959961
1.270000	25.959961
1.280000	25.959961
1.290000	25.959961
1.300000	25.959961
1.310000	25.959961
1.320000	25.959961
1.330000	25.959961
1.340000	25.959961
1.350000	25.959961
1.360000	25.959961
1.370000	25.959961
1.380000	25.959961
1.390000	25.959961
1.400000	25.959961
1.410000	25.959961
1.420000	25.959961
1.430000	25.959961
1.440000	25.959961
1.450000	25.959961
1.460000	25.959961
1.470000	25.959961
1.480000	25.959961
1.490000	25.959961
1.500000	27.765343
1.510000	27.765343
1.520000	27.765343
1.530000	27.765343
1.540000	27.765343
1.550000	27.765343
1.560000	27.765343
1.570000	27.765343
1.580000	27.765343
1.590000	27.765343
1.600000	27.765343
1.610000	27.765343
1.620000	27.765343
1.630000	27.765343
1.640000	27.765343
1.650000	27.765343
1.660000	27.765343
1.670000	27.765343
1.680000	27.765343
1.690000	27.765343
1.700000	27.765343
1.710000	27.765343
1.720000	27.765343
1.730000	27.765343
1.740000	27.765343
1.750000	27.765343
1.760000	27.765343
1.770000	27.765343
1.780000	27.765343
1.790000	27.765343
1.800000	27.765343
1.810000	27.765343
1.820000	27.765343
1.830000	27.765343
1.840000	27.765343
1.850000	27.765343
1.860000	27.765343
1.870000	27.765343
1.880000	27.765343
1.890000	27.765343
1.900000	27.765343
1.910000	27.765343
1.920000	27.765343
1.930000	27.765343
1.940000	27.765343
1.950000	27.765343
1.960000	27.765343
1.970000	27.765343
1.980000	27.765343
1.990000	27.765343
2.000000	30.406451
2.010000	30.406451
2.020000	30.406451
2.030000	30.406451
2.040000	30.406451
2.050000	30.406451
2.060000	30.406451
2.070000	30.406451
2.080000	30.406451
2.090000	30.406451
2.100000	30.406451
2.110000	30.406451
2.120000	30.406451
2.130000	30.406451
2.140000	30.406451
2.150000	30.406451
2.160000	30.406451
2.170000	30.406451
2.180000	30.406451
2.190000	30.406451
2.200000	30.406451
2.210000	30.406451
2.220000	30.406451
2.230000	30.406451
2.240000	30.406451
2.250000	30.406451
2.260000	30.406451
2.270000	30.406451
2.280000	30.406451
2.290000	30.406451
2.300000	30.406451
2.310000	30.406451
2.320000	30.406451
2.330000	30.406451
2.340000	30.406451
2.350000	30.406451
2.360000	30.406451
2.370000	30.406451
2.380000	30.406451
2.390000	30.406451
2.400000	30.406451
2.410000	30.406451
2.420000	30.406451
2.430000	30.406451
2.440000	30.406451
2.450000	30.406451
2.460000	30.406451
2.470000	30.406451
2.480000	30.406451
2.490000	30.406451
2.500000	33.659630
2.510000	33.659630
2.520000	33.659630
2.530000	33.659630
2.540000	33.659630
2.550000	33.659630
2.560000	33.659630
2.570000	33.659630
2.580000	33.659630
2.590000	33.659630
2.600000	33.659630
2.610000	33.659630
2.620000	33.659630
2.630000	33.659630
2.640000	33.659630
2.650000	33.659630
2.660000	33.659630
2.670000	33.659630
2.680000	33.659630
2.690000	33.659630
2.700000	33.659630
2.710000	33.659630
2.720000	33.659630
2.730000	33.659630
2.740000	33.659630
2.750000	33.659630
2.760000	33.659630
2.770000	33.659630
2.780000	33.659630
2.790000	33.659630
2.800000	33.659630
2.810000	33.659630
2.820000	33.659630
2.830000	33.659630
2.840000	33.659630
2.850000	33.659630
2.860000	33.659630
2.870000	33.659630
2.880000	33.659630
2.890000	33.659630
2.900000	33.659630
2.910000	33.659630
2.920000	33.659630
2.930000	33.659630
2.940000	33.659630
2.950000	33.659630
2.960000	33.659630
2.970000	33.659630
2.980000	33.659630
2.990000	33.659630
3.000000	37.344620
3.010000	37.344620
3.020000	37.344620
3.030000	37.344620
3.040000	37.344620
3.050000	37.344620
3.060000	37.344620
3.070000	37.344620
3.080000	37.344620
3.090000	37.344620
3.100000	37.344620
3.110000	37.344620
3.120000	37.344620
3.130000	37.344620
3.140000	37.344620
3.150000	37.344620
3.160000	37.344620
3.170000	37.344620
3.180000	37.344620
3.190000	37.344620
3.200000	37.344620
3.210000	37.344620
3.220000	37.344620
3.230000	37.344620
3.240000	37.344620
3.250000	37.344620
3.260000	37.344620
3.270000	37.344620
3.280000	37.344620
3.290000	37.344620
3.300000	37.344620
3.310000	37.344620
3.320000	37.344620
3.330000	37.344620
3.340000	37.344620
3.350000	37.344620
3.360000	37.344620
3.370000	37.344620
3.380000	37.344620
3.390000	37.344620
3.400000	37.344620
3.410000	37.344620
3.420000	37.344620
3.430000	37.344620
3.440000	37.344620
3.450000	37.344620
3.460000	37.344620
3.470000	37.344620
3.480000	37.344620
3.490000	37.344620
3.500000	41.162344
3.510000	41.162344
3.520000	41.162344
3.530000	41.162344
3.540000	41.162344
3.550000	41.162344
3.560000	41.162344
3.570000	41.162344
3.580000	41.162344
3.590000	41.162344
3.600000	41.162344
3.610000	41.162344
3.620000	41.162344
3.630000	41.162344
3.640000	41.162344
3.650000	41.162344
3.660000	41.162344
3.670000	41.162344
3.680000	41.162344
3.690000	41.162344
3.700000	41.162344
3.710000	41.162344
3.720000	41.162344
3.730000	41.162344
3.740000	41.162344
3.750000	41.162344
3.760000	41.162344
3.770000	41.162344
3.780000	41.162344
3.790000	41.162344
3.800000	41.162344
3.810000	41.162344
3.820000	41.162344
3.830000	41.162344
3.840000	41.162344
3.850000	41.162344
3.860000	41.162344
3.870000	41.162344
3.880000	41.162344
3.890000	41.162344
3.900000	41.162344
3.910000	41.162344
3.920000	41.162344
3.930000	41.162344
3.940000	41.162344
3.950000	41.162344
3.960000	41.162344
3.970000	41.162344
3.980000	41.162344
3.990000	41.162344
4.000000	44.383961
4.010000	44.383961
4.020000	44.383961
4.030000	44.383961
4.040000	44.383961
4.050000	44.383961
4.060000	44.383961
4.070000	44.383961
4.080000	44.383961
4.090000	44.383961
4.100000	44.383961
4.110000	44.383961
4.120000	44.383961
4.130000	44.383961
4.140000	44.383961
4.150000	44.383961
4.160000	44.383961
4.170000	44.383961
4.180000	44.383961
4.190000	44.383961
4.200000	44.383961
4.210000	44.383961
4.220000	44.383961
4.230000	44.383961
4.240000	44.383961
4.250000	44.383961
4.260000	44.383961
4.270000	44.383961
4.280000	44.383961
4.290000	44.383961
4.300000	44.383961
4.310000	44.383961
4.320000	44.383961
4.330000	44.383961
4.340000	44.383961
4.350000	44.383961
4.360000	44.383961
4.370000	44.383961
4.380000	44.383961
4.390000	44.383961
4.400000	44.383961
4.410000	44.383961
4.420000	44.383961
4.430000	44.383961
4.440000	44.383961
4.450000	44.383961
4.460000	44.383961
4.470000	44.383961
4.480000	44.383961
4.490000	44.383961
4.500000	46.801693
4.510000	46.801693
4.520000	46.801693
4.530000	46.801693
4.540000	46.801693
4.550000	46.801693
4.560000	46.801693
4.570000	46.801693
4.580000	46.801693
4.590000	46.801693
4.600000	46.801693
4.610000	46.801693
4.620000	46.801693
4.630000	46.801693
4.640000	46.801693
4.650000	46.801693
4.660000	46.801693
4.670000	46.801693
4.680000	46.801693
4.690000	46.801693
4.700000	46.801693
4.710000	46.801693
4.720000	46.801693
4.730000	46.801693
4.740000	46.801693
4.750000	46.801693
4.760000	46.801693
4.770000	46.801693
4.780000	46.801693
4.790000	46.801693
4.800000	46.801693
4.810000	46.801693
4.820000	46.801693
4.830000	46.801693
4.840000	46.801693
4.850000	46.801693
4.860000	46.801693
4.870000	46.801693
4.880000	46.801693
4.890000	46.801693
4.900000	46.801693
4.910000	46.801693
4.920000	46.801693
4.930000	46.801693
4.940000	46.801693
4.950000	46.801693
4.960000	46.801693
4.970000	46.801693
4.980000	46.801693
4.990000	46.801693
5.000000	48.558601
5.010000	48.558601
5.020000	48.558601
5.030000	48.558601
5.040000	48.558601
5.050000	48.558601
5.060000	48.558601
5.070000	48.558601
5.080000	48.558601
5.090000	48.558601
5.100000	48.558601
5.110000	48.558601
5.120000	48.558601
5.130000	48.558601
5.140000	48.558601
5.150000	48.558601
5.160000	48.558601
5.170000	48.558601
5.180000	48.558601
5.190000	48.558601
5.200000	48.558601
5.210000	48.558601
5.220000	48.558601
5.230000	48.558601
5.240000	48.558601
5.250000	48.558601
5.260000	48.558601
5.270000	48.558601
5.280000	48.558601
5.290000	48.558601
5.300000	48.558601
5.310000	48.558601
5.320000	48.558601
5.330000	48.558601
5.340000	48.558601
5.350000	48.558601
5.360000	48.558601
5.370000	48.558601
5.380000	48.558601
5.390000	48.558601
5.400000	48.558601
5.410000	48.558601
5.420000	48.558601
5.430000	48.558601
5.440000	48.558601
5.450000	48.558601
5.460000	48.558601
5.470000	48.558601
5.480000	48.558601
5.490000	48.558601
5.500000	49.784232
5.510000	49.784232
5.520000	49.784232
5.530000	49.784232
5.540000	49.784232
5.550000	49.784232
5.560000	49.784232
5.570000	49.784232
5.580000	49.784232
5.590000	49.784232
5.600000	49.784232
5.610000	49.784232
5.620000	49.784232
5.630000	49.784232
5.640000	49.784232
5.650000	49.784232
5.660000	49.784232
5.670000	49.784232
5.680000	49.784232
5.690000	49.784232
5.700000	49.784232
5.710000	49.784232
5.720000	49.784232
5.730000	49.784232
5.740000	49.784232
5.750000	49.784232
5.760000	49.784232
5.770000	49.784232
5.780000	49.784232
5.790000	49.784232
5.800000	49.784232
5.810000	49.784232
5.820000	49.784232
5.830000	49.784232
5.840000	49.784232
5.850000	49.784232
5.860000	49.784232
5.870000	49.784232
5.880000	49.784232
5.890000	49.784232
5.900000	49.784232
5.910000	49.784232
5.920000	49.784232
5.930000	49.784232
5.940000	49.784232
5.950000	49.784232
5.960000	49.784232
5.970000	49.784232
5.980000	49.784232
5.990000	49.784232
6.000000	50.592199
6.010000	50.592199
6.020000	50.592199
6.030000	50.592199
6.040000	50.592199
6.050000	50.592199
6.060000	50.592199
6.070000	50.592199
6.080000	50.592199
6.090000	50.592199
6.100000	50.592199
6.110000	50.592199
6.120000	50.592199
6.130000	50.592199
6.140000	50.592199
6.150000	50.592199
6.160000	50.592199
6.170000	50.592199
6.180000	50.592199
6.190000	50.592199
6.200000	50.592199
6.210000	50.592199
6.220000	50.592199
6.230000	50.592199
6.240000	50.592199
6.250000	50.592199
6.260000	50.592199
6.270000	50.592199
6.280000	50.592199
6.290000	50.592199
6.300000	50.592199
6.310000	50.592199
6.320000	50.592199
6.330000	50.592199
6.340000	50.592199
6.350000	50.592199
6.360000	50.592199
6.370000	50.592199
6.380000	50.592199
6.390000	50.592199
6.400000	50.592199
6.410000	50.592199
6.420000	50.592199
6.430000	50.592199
6.440000	50.592199
6.450000	50.592199
6.460000	50.592199
6.470000	50.592199
6.480000	50.592199
6.490000	50.592199
6.500000	51.085274
6.510000	51.085274
6.520000	51.085274
6.530000	51.085274
6.540000	51.085274
6.550000	51.085274
6.560000	51.085274
6.570000	51.085274
6.580000	51.085274
6.590000	51.085274
6.600000	51.085274
6.610000	51.085274
6.620000	51.085274
6.630000	51.085274
6.640000	51.085274
6.650000	51.085274
6.660000	51.085274
6.670000	51.085274
6.680000	51.085274
6.690000	51.085274
6.700000	51.085274
6.710000	51.085274
6.720000	51.085274
6.730000	51.085274
6.740000	51.085274
6.750000	51.085274
6.760000	51.085274
6.770000	51.085274
6.780000	51.085274
6.790000	51.085274
6.800000	51.085274
6.810000	51.085274
6.820000	51.085274
6.830000	51.085274
6.840000	51.085274
6.850000	51.085274
6.860000	51.085274
6.870000	51.085274
6.880000	51.085274
6.890000	51.085274
6.900000	51.085274
6.910000	51.085274
6.920000	51.085274
6.930000	51.085274
6.940000	51.085274
6.950000	51.085274
6.960000	51.085274
6.970000	51.085274
6.980000	51.085274
6.990000	51.085274
7.000000	51.325164
7.010000	51.325164
7.020000	51.325164
7.030000	51.325164
7.040000	51.325164
7.050000	51.325164
7.060000	51.325164
7.070000	51.325164
7.080000	51.325164
7.090000	51.325164
7.100000	51.325164
7.110000	51.325164
7.120000	51.325164
7.130000	51.325164
7.140000	51.325164
7.150000	51.325164
7.160000	51.325164
7.170000	51.325164
7.180000	51.325164
7.190000	51.325164
7.200000	51.325164
7.210000	51.325164
7.220000	51.325164
7.230000	51.325164
7.240000	51.325164
7.250000	51.325164
7.260000	51.325164
7.270000	51.325164
7.280000	51.325164
7.290000	51.325164
7.300000	51.325164
7.310000	51.325164
7.320000	51.325164
7.330000	51.325164
7.340000	51.325164
7.350000	51.325164
7.360000	51.325164
7.370000	51.325164
7.380000	51.325164
7.390000	51.325164
7.400000	51.325164
7.410000	51.325164
7.420000	51.325164
7.430000	51.325164
7.440000	51.325164
7.450000	51.325164
7.460000	51.325164
7.470000	51.325164
7.480000	51.325164
7.490000	51.325164
7.500000	51.367736
7.510000	51.367736
7.520000	51.367736
7.530000	51.367736
7.540000	51.367736
7.550000	51.367736
7.560000	51.367736
7.570000	51.367736
7.580000	51.367736
7.590000	51.367736
7.600000	51.367736
7.610000	51.367736
7.620000	51.367736
7.630000	51.367736
7.640000	51.367736
7.650000	51.367736
7.660000	51.367736
7.670000	51.367736
7.680000	51.367736
7.690000	51.367736
7.700000	51.367736
7.710000	51.367736
7.720000	51.367736
7.730000	51.367736
7.740000	51.367736
7.750000	51.367736
7.760000	51.367736
7.770000	51.367736
7.780000	51.367736
7.790000	51.367736
7.800000	51.367736
7.810000	51.367736
7.820000	51.367736
7.830000	51.367736
7.840000	51.367736
7.850000	51.367736
7.860000	51.367736
7.870000	51.367736
7.880000	51.367736
7.890000	51.367736
7.900000	51.367736
7.910000	51.367736
7.920000	51.367736
7.930000	51.367736
7.940000	51.367736
7.950000	51.367736
7.960000	51.367736
7.970000	51.367736
7.980000	51.367736
7.990000	51.367736
8.000000	51.265399
8.010000	51.265399
8.020000	51.265399
8.030000	51.265399
8.040000	51.265399
8.050000	51.265399
8.060000	51.265399
8.070000	51.265399
8.080000	51.265399
8.090000	51.265399
8.100000	51.265399
8.110000	51.265399
8.120000	51.265399
8.130000	51.265399
8.140000	51.265399
8.150000	51.265399
8.160000	51.265399
8.170000	51.265399
8.180000	51.265399
8.190000	51.265399
8.200000	51.265399
8.210000	51.265399
8.220000	51.265399
8.230000	51.265399
8.240000	51.265399
8.250000	51.265399
8.260000	51.265399
8.270000	51.265399
8.280000	51.265399
8.290000	51.265399
8.300000	51.265399
8.310000	51.265399
8.320000	51.265399
8.330000	51.265399
8.340000	51.265399
8.350000	51.265399
8.360000	51.265399
8.370000	51.265399
8.380000	51.265399
8.390000	51.265399
8.400000	51.265399
8.410000	51.265399
8.420000	51.265399
8.430000	51.265399
8.440000	51.265399
8.450000	51.265399
8.460000	51.265399
8.470000	51.265399
8.480000	51.265399
8.490000	51.265399
8.500000	51.051021
8.510000	51.051021
8.520000	51.051021
8.530000	51.051021
8.540000	51.051021
8.550000	51.051021
8.560000	51.051021
8.570000	51.051021
8.580000	51.051021
8.590000	51.051021
8.600000	51.051021
8.610000	51.051021
8.620000	51.051021
8.630000	51.051021
8.640000	51.051021
8.650000	51.051021
8.660000	51.051021
8.670000	51.051021
8.680000	51.051021
8.690000	51.051021
8.700000	51.051021
8.710000	51.051021
8.720000	51.051021
8.730000	51.051021
8.740000	51.051021
8.750000	51.051021
8.760000	51.051021
8.770000	51.051021
8.780000	51.051021
8.790000	51.051021
8.800000	51.051021
8.810000	51.051021
8.820000	51.051021
8.830000	51.051021
8.840000	51.051021
8.850000	51.051021
8.860000	51.051021
8.870000	51.051021
8.880000	51.051021
8.890000	51.051021
8.900000	51.051021
8.910000	51.051021
8.920000	51.051021
8.930000	51.051021
8.940000	51.051021
8.950000	51.051021
8.960000	51.051021
8.970000	51.051021
8.980000	51.051021
8.990000	51.051021
9.000000	50.750042
9.010000	50.750042
9.020000	50.750042
9.030000	50.750042
9.040000	50.750042
9.050000	50.750042
9.060000	50.750042
9.070000	50.750042
9.080000	50.750042
9.090000	50.750042
9.100000	50.750042
9.110000	50.750042
9.120000	50.750042
9.130000	50.750042
9.140000	50.750042
9.150000	50.750042
9.160000	50.750042
9.170000	50.750042
9.180000	50.750042
9.190000	50.750042
9.200000	50.750042
9.210000	50.750042
9.220000	50.750042
9.230000	50.750042
9.240000	50.750042
9.250000	50.750042
9.260000	50.750042
9.270000	50.750042
9.280000	50.750042
9.290000	50.750042
9.300000	50.750042
9.310000	50.750042
9.320000	50.750042
9.330000	50.750042
9.340000	50.750042
9.350000	50.750042
9.360000	50.750042
9.370000	50.750042
9.380000	50.750042
9.390000	50.750042
9.400000	50.750042
9.410000	50.750042
9.420000	50.750042
9.430000	50.750042
9.440000	50.750042
9.450000	50.750042
9.460000	50.750042
9.470000	50.750042
9.480000	50.750042
9.490000	50.750042
9.500000	50.385390
9.510000	50.385390
9.520000	50.385390
9.530000	50.385390
9.540000	50.385390
9.550000	50.385390
9.560000	50.385390
9.570000	50.385390
9.580000	50.385390
9.590000	50.385390
9.600000	50.385390
9.610000	50.385390
9.620000	50.385390
9.630000	50.385390
9.640000	50.385390
9.650000	50.385390
9.660000	50.385390
9.670000	50.385390
9.680000	50.385390
9.690000	50.385390
9.700000	50.385390
9.710000	50.385390
9.720000	50.385390
9.730000	50.385390
9.740000	50.385390
9.750000	50.385390
9.760000	50.385390
