LabVIEW Measurement	
Writer_Version	2
Reader_Version	2
Separator	Tab
Decimal_Separator	.
Multi_Headings	No
X_Columns	One
Time_Pref	Absolute
Operator	biomech-dyno
Date	2023/05/23
Time	16:26:31.1792034999998606061
***End_of_Header***	
	
Channels	1	
Samples	10	
Date	2023/05/23	
Time	16:37:13.9974860999999546984	
X_Dimension	Time	
X0	0.0000000000000000E+0	
Delta_X	0.010000	
***End_of_Header***		
X_Value	Untitled	Comment
0.000000	25.145497
0.010000	25.145497
0.020000	25.145497
0.030000	25.145497
0.040000	25.145497
0.050000	25.145497
0.060000	25.145497
0.070000	25.145497
0.080000	25.145497
0.090000	25.145497
0.100000	25.145497
0.110000	25.145497
0.120000	25.145497
0.130000	25.145497
0.140000	25.145497
0.150000	25.145497
0.160000	25.145497
0.170000	25.145497
0.180000	25.145497
0.190000	25.145497
0.200000	25.145497
0.210000	25.145497
0.220000	25.145497
0.230000	25.145497
0.240000	25.145497
0.250000	25.145497
0.260000	25.145497
0.270000	25.145497
0.280000	25.145497
0.290000	25.145497
0.300000	25.145497
0.310000	25.145497
0.320000	25.145497
0.330000	25.145497
0.340000	25.145497
0.350000	25.145497
0.360000	25.145497
0.370000	25.145497
0.380000	25.145497
0.390000	25.145497
0.400000	25.145497
0.410000	25.145497
0.420000	25.145497
0.430000	25.145497
0.440000	25.145497
0.450000	25.145497
0.460000	25.145497
0.470000	25.145497
0.480000	25.145497
0.490000	25.145497
0.500000	25.236653
0.510000	25.236653
0.520000	25.236653
0.530000	25.236653
0.540000	25.236653
0.550000	25.236653
0.560000	25.236653
0.570000	25.236653
0.580000	25.236653
0.590000	25.236653
0.600000	25.236653
0.610000	25.236653
0.620000	25.236653
0.630000	25.236653
0.640000	25.236653
0.650000	25.236653
0.660000	25.236653
0.670000	25.236653
0.680000	25.236653
0.690000	25.236653
0.700000	25.236653
0.710000	25.236653
0.720000	25.236653
0.730000	25.236653
0.740000	25.236653
0.750000	25.236653
0.760000	25.236653
0.770000	25.236653
0.780000	25.236653
0.790000	25.236653
0.800000	25.236653
0.810000	25.236653
0.820000	25.236653
0.830000	25.236653
0.840000	25.236653
0.850000	25.236653
0.860000	25.236653
0.870000	25.236653
0.880000	25.236653
0.890000	25.236653
0.900000	25.236653
0.910000	25.236653
0.920000	25.236653
0.930000	25.236653
0.940000	25.236653
0.950000	25.236653
0.960000	25.236653
0.970000	25.236653
0.980000	25.236653
0.990000	25.236653
1.000000	26.172400
1.010000	26.172400
1.020000	26.172400
1.030000	26.172400
1.040000	26.172400
1.050000	26.172400
1.060000	26.172400
1.070000	26.172400
1.080000	26.172400
1.090000	26.172400
1.100000	26.172400
1.110000	26.172400
1.120000	26.172400
1.130000	26.172400
1.140000	26.172400
1.150000	26.172400
1.160000	26.172400
1.170000	26.172400
1.180000	26.172400
1.190000	26.172400
1.200000	26.172400
1.210000	26.172400
1.220000	26.172400
1.230000	26.172400
1.240000	26.172400
1.250000	26.172400
1.260000	26.172400
1.270000	26.172400
1.280000	26.172400
1.290000	26.172400
1.300000	26.172400
1.310000	26.172400
1.320000	26.172400
1.330000	26.172400
1.340000	26.172400
1.350000	26.172400
1.360000	26.172400
1.370000	26.172400
1.380000	26.172400
1.390000	26.172400
1.400000	26.172400
1.410000	26.172400
1.420000	26.172400
1.430000	26.172400
1.440000	26.172400
1.450000	26.172400
1.460000	26.172400
1.470000	26.172400
1.480000	26.172400
1.490000	26.172400
1.500000	28.279834
1.510000	28.279834
1.520000	28.279834
1.530000	28.279834
1.540000	28.279834
1.550000	28.279834
1.560000	28.279834
1.570000	28.279834
1.580000	28.279834
1.590000	28.279834
1.600000	28.279834
1.610000	28.279834
1.620000	28.279834
1.630000	28.279834
1.640000	28.279834
1.650000	28.279834
1.660000	28.279834
1.670000	28.279834
1.680000	28.279834
1.690000	28.279834
1.700000	28.279834
1.710000	28.279834
1.720000	28.279834
1.730000	28.279834
1.740000	28.279834
1.750000	28.279834
1.760000	28.279834
1.770000	28.279834
1.780000	28.279834
1.790000	28.279834
1.800000	28.279834
1.810000	28.279834
1.820000	28.279834
1.830000	28.279834
1.840000	28.279834
1.850000	28.279834
1.860000	28.279834
1.870000	28.279834
1.880000	28.279834
1.890000	28.279834
1.900000	28.279834
1.910000	28.279834
1.920000	28.279834
1.930000	28.279834
1.940000	28.279834
1.950000	28.279834
1.960000	28.279834
1.970000	28.279834
1.980000	28.279834
1.990000	28.279834
2.000000	31.362158
2.010000	31.362158
2.020000	31.362158
2.030000	31.362158
2.040000	31.362158
2.050000	31.362158
2.060000	31.362158
2.070000	31.362158
2.080000	31.362158
2.090000	31.362158
2.100000	31.362158
2.110000	31.362158
2.120000	31.362158
2.130000	31.362158
2.140000	31.362158
2.150000	31.362158
2.160000	31.362158
2.170000	31.362158
2.180000	31.362158
2.190000	31.362158
2.200000	31.362158
2.210000	31.362158
2.220000	31.362158
2.230000	31.362158
2.240000	31.362158
2.250000	31.362158
2.260000	31.362158
2.270000	31.362158
2.280000	31.362158
2.290000	31.362158
2.300000	31.362158
2.310000	31.362158
2.320000	31.362158
2.330000	31.362158
2.340000	31.362158
2.350000	31.362158
2.360000	31.362158
2.370000	31.362158
2.380000	31.362158
2.390000	31.362158
2.400000	31.362158
2.410000	31.362158
2.420000	31.362158
2.430000	31.362158
2.440000	31.362158
2.450000	31.362158
2.460000	31.362158
2.470000	31.362158
2.480000	31.362158
2.490000	31.362158
2.500000	35.248982
2.510000	35.248982
2.520000	35.248982
2.530000	35.248982
2.540000	35.248982
2.550000	35.248982
2.560000	35.248982
2.570000	35.248982
2.580000	35.248982
2.590000	35.248982
2.600000	35.248982
2.610000	35.248982
2.620000	35.248982
2.630000	35.248982
2.640000	35.248982
2.650000	35.248982
2.660000	35.248982
2.670000	35.248982
2.680000	35.248982
2.690000	35.248982
2.700000	35.248982
2.710000	35.248982
2.720000	35.248982
2.730000	35.248982
2.740000	35.248982
2.750000	35.248982
2.760000	35.248982
2.770000	35.248982
2.780000	35.248982
2.790000	35.248982
2.800000	35.248982
2.810000	35.248982
2.820000	35.248982
2.830000	35.248982
2.840000	35.248982
2.850000	35.248982
2.860000	35.248982
2.870000	35.248982
2.880000	35.248982
2.890000	35.248982
2.900000	35.248982
2.910000	35.248982
2.920000	35.248982
2.930000	35.248982
2.940000	35.248982
2.950000	35.248982
2.960000	35.248982
2.970000	35.248982
2.980000	35.248982
2.990000	35.248982
3.000000	39.730055
3.010000	39.730055
3.020000	39.730055
3.030000	39.730055
3.040000	39.730055
3.050000	39.730055
3.060000	39.730055
3.070000	39.730055
3.080000	39.730055
3.090000	39.730055
3.100000	39.730055
3.110000	39.730055
3.120000	39.730055
3.130000	39.730055
3.140000	39.730055
3.150000	39.730055
3.160000	39.730055
3.170000	39.730055
3.180000	39.730055
3.190000	39.730055
3.200000	39.730055
3.210000	39.730055
3.220000	39.730055
3.230000	39.730055
3.240000	39.730055
3.250000	39.730055
3.260000	39.730055
3.270000	39.730055
3.280000	39.730055
3.290000	39.730055
3.300000	39.730055
3.310000	39.730055
3.320000	39.730055
3.330000	39.730055
3.340000	39.730055
3.350000	39.730055
3.360000	39.730055
3.370000	39.730055
3.380000	39.730055
3.390000	39.730055
3.400000	39.730055
3.410000	39.730055
3.420000	39.730055
3.430000	39.730055
3.440000	39.730055
3.450000	39.730055
3.460000	39.730055
3.470000	39.730055
3.480000	39.730055
3.490000	39.730055
3.500000	44.510885
3.510000	44.510885
3.520000	44.510885
3.530000	44.510885
3.540000	44.510885
3.550000	44.510885
3.560000	44.510885
3.570000	44.510885
3.580000	44.510885
3.590000	44.510885
3.600000	44.510885
3.610000	44.510885
3.620000	44.510885
3.630000	44.510885
3.640000	44.510885
3.650000	44.510885
3.660000	44.510885
3.670000	44.510885
3.680000	44.510885
3.690000	44.510885
3.700000	44.510885
3.710000	44.510885
3.720000	44.510885
3.730000	44.510885
3.740000	44.510885
3.750000	44.510885
3.760000	44.510885
3.770000	44.510885
3.780000	44.510885
3.790000	44.510885
3.800000	44.510885
3.810000	44.510885
3.820000	44.510885
3.830000	44.510885
3.840000	44.510885
3.850000	44.510885
3.860000	44.510885
3.870000	44.510885
3.880000	44.510885
3.890000	44.510885
3.900000	44.510885
3.910000	44.510885
3.920000	44.510885
3.930000	44.510885
3.940000	44.510885
3.950000	44.510885
3.960000	44.510885
3.970000	44.510885
3.980000	44.510885
3.990000	44.510885
4.000000	48.610577
4.010000	48.610577
4.020000	48.610577
4.030000	48.610577
4.040000	48.610577
4.050000	48.610577
4.060000	48.610577
4.070000	48.610577
4.080000	48.610577
4.090000	48.610577
4.100000	48.610577
4.110000	48.610577
4.120000	48.610577
4.130000	48.610577
4.140000	48.610577
4.150000	48.610577
4.160000	48.610577
4.170000	48.610577
4.180000	48.610577
4.190000	48.610577
4.200000	48.610577
4.210000	48.610577
4.220000	48.610577
4.230000	48.610577
4.240000	48.610577
4.250000	48.610577
4.260000	48.610577
4.270000	48.610577
4.280000	48.610577
4.290000	48.610577
4.300000	48.610577
4.310000	48.610577
4.320000	48.610577
4.330000	48.610577
4.340000	48.610577
4.350000	48.610577
4.360000	48.610577
4.370000	48.610577
4.380000	48.610577
4.390000	48.610577
4.400000	48.610577
4.410000	48.610577
4.420000	48.610577
4.430000	48.610577
4.440000	48.610577
4.450000	48.610577
4.460000	48.610577
4.470000	48.610577
4.480000	48.610577
4.490000	48.610577
4.500000	51.687415
4.510000	51.687415
4.520000	51.687415
4.530000	51.687415
4.540000	51.687415
4.550000	51.687415
4.560000	51.687415
4.570000	51.687415
4.580000	51.687415
4.590000	51.687415
4.600000	51.687415
4.610000	51.687415
4.620000	51.687415
4.630000	51.687415
4.640000	51.687415
4.650000	51.687415
4.660000	51.687415
4.670000	51.687415
4.680000	51.687415
4.690000	51.687415
4.700000	51.687415
4.710000	51.687415
4.720000	51.687415
4.730000	51.687415
4.740000	51.687415
4.750000	51.687415
4.760000	51.687415
4.770000	51.687415
4.780000	51.687415
4.790000	51.687415
4.800000	51.687415
4.810000	51.687415
4.820000	51.687415
4.830000	51.687415
4.840000	51.687415
4.850000	51.687415
4.860000	51.687415
4.870000	51.687415
4.880000	51.687415
4.890000	51.687415
4.900000	51.687415
4.910000	51.687415
4.920000	51.687415
4.930000	51.687415
4.940000	51.687415
4.950000	51.687415
4.960000	51.687415
4.970000	51.687415
4.980000	51.687415
4.990000	51.687415
5.000000	53.931985
5.010000	53.931985
5.020000	53.931985
5.030000	53.931985
5.040000	53.931985
5.050000	53.931985
5.060000	53.931985
5.070000	53.931985
5.080000	53.931985
5.090000	53.931985
5.100000	53.931985
5.110000	53.931985
5.120000	53.931985
5.130000	53.931985
5.140000	53.931985
5.150000	53.931985
5.160000	53.931985
5.170000	53.931985
5.180000	53.931985
5.190000	53.931985
5.200000	53.931985
5.210000	53.931985
5.220000	53.931985
5.230000	53.931985
5.240000	53.931985
5.250000	53.931985
5.260000	53.931985
5.270000	53.931985
5.280000	53.931985
5.290000	53.931985
5.300000	53.931985
5.310000	53.931985
5.320000	53.931985
5.330000	53.931985
5.340000	53.931985
5.350000	53.931985
5.360000	53.931985
5.370000	53.931985
5.380000	53.931985
5.390000	53.931985
5.400000	53.931985
5.410000	53.931985
5.420000	53.931985
5.430000	53.931985
5.440000	53.931985
5.450000	53.931985
5.460000	53.931985
5.470000	53.931985
5.480000	53.931985
5.490000	53.931985
5.500000	55.522481
5.510000	55.522481
5.520000	55.522481
5.530000	55.522481
5.540000	55.522481
5.550000	55.522481
5.560000	55.522481
5.570000	55.522481
5.580000	55.522481
5.590000	55.522481
5.600000	55.522481
5.610000	55.522481
5.620000	55.522481
5.630000	55.522481
5.640000	55.522481
5.650000	55.522481
5.660000	55.522481
5.670000	55.522481
5.680000	55.522481
5.690000	55.522481
5.700000	55.522481
5.710000	55.522481
5.720000	55.522481
5.730000	55.522481
5.740000	55.522481
5.750000	55.522481
5.760000	55.522481
5.770000	55.522481
5.780000	55.522481
5.790000	55.522481
5.800000	55.522481
5.810000	55.522481
5.820000	55.522481
5.830000	55.522481
5.840000	55.522481
5.850000	55.522481
5.860000	55.522481
5.870000	55.522481
5.880000	55.522481
5.890000	55.522481
5.900000	55.522481
5.910000	55.522481
5.920000	55.522481
5.930000	55.522481
5.940000	55.522481
5.950000	55.522481
5.960000	55.522481
5.970000	55.522481
5.980000	55.522481
5.990000	55.522481
6.000000	56.583853
6.010000	56.583853
6.020000	56.583853
6.030000	56.583853
6.040000	56.583853
6.050000	56.583853
6.060000	56.583853
6.070000	56.583853
6.080000	56.583853
6.090000	56.583853
6.100000	56.583853
6.110000	56.583853
6.120000	56.583853
6.130000	56.583853
6.140000	56.583853
6.150000	56.583853
6.160000	56.583853
6.170000	56.583853
6.180000	56.583853
6.190000	56.583853
6.200000	56.583853
6.210000	56.583853
6.220000	56.583853
6.230000	56.583853
6.240000	56.583853
6.250000	56.583853
6.260000	56.583853
6.270000	56.583853
6.280000	56.583853
6.290000	56.583853
6.300000	56.583853
6.310000	56.583853
6.320000	56.583853
6.330000	56.583853
6.340000	56.583853
6.350000	56.583853
6.360000	56.583853
6.370000	56.583853
6.380000	56.583853
6.390000	56.583853
6.400000	56.583853
6.410000	56.583853
6.420000	56.583853
6.430000	56.583853
6.440000	56.583853
6.450000	56.583853
6.460000	56.583853
6.470000	56.583853
6.480000	56.583853
6.490000	56.583853
6.500000	57.260530
6.510000	57.260530
6.520000	57.260530
6.530000	57.260530
6.540000	57.260530
6.550000	57.260530
6.560000	57.260530
6.570000	57.260530
6.580000	57.260530
6.590000	57.260530
6.600000	57.260530
6.610000	57.260530
6.620000	57.260530
6.630000	57.260530
6.640000	57.260530
6.650000	57.260530
6.660000	57.260530
6.670000	57.260530
6.680000	57.260530
6.690000	57.260530
6.700000	57.260530
6.710000	57.260530
6.720000	57.260530
6.730000	57.260530
6.740000	57.260530
6.750000	57.260530
6.760000	57.260530
6.770000	57.260530
6.780000	57.260530
6.790000	57.260530
6.800000	57.260530
6.810000	57.260530
6.820000	57.260530
6.830000	57.260530
6.840000	57.260530
6.850000	57.260530
6.860000	57.260530
6.870000	57.260530
6.880000	57.260530
6.890000	57.260530
6.900000	57.260530
6.910000	57.260530
6.920000	57.260530
6.930000	57.260530
6.940000	57.260530
6.950000	57.260530
6.960000	57.260530
6.970000	57.260530
6.980000	57.260530
6.990000	57.260530
7.000000	57.605550
7.010000	57.605550
7.020000	57.605550
7.030000	57.605550
7.040000	57.605550
7.050000	57.605550
7.060000	57.605550
7.070000	57.605550
7.080000	57.605550
7.090000	57.605550
7.100000	57.605550
7.110000	57.605550
7.120000	57.605550
7.130000	57.605550
7.140000	57.605550
7.150000	57.605550
7.160000	57.605550
7.170000	57.605550
7.180000	57.605550
7.190000	57.605550
7.200000	57.605550
7.210000	57.605550
7.220000	57.605550
7.230000	57.605550
7.240000	57.605550
7.250000	57.605550
7.260000	57.605550
7.270000	57.605550
7.280000	57.605550
7.290000	57.605550
7.300000	57.605550
7.310000	57.605550
7.320000	57.605550
7.330000	57.605550
7.340000	57.605550
7.350000	57.605550
7.360000	57.605550
7.370000	57.605550
7.380000	57.605550
7.390000	57.605550
7.400000	57.605550
7.410000	57.605550
7.420000	57.605550
7.430000	57.605550
7.440000	57.605550
7.450000	57.605550
7.460000	57.605550
7.470000	57.605550
7.480000	57.605550
7.490000	57.605550
7.500000	57.691852
7.510000	57.691852
7.520000	57.691852
7.530000	57.691852
7.540000	57.691852
7.550000	57.691852
7.560000	57.691852
7.570000	57.691852
7.580000	57.691852
7.590000	57.691852
7.600000	57.691852
7.610000	57.691852
7.620000	57.691852
7.630000	57.691852
7.640000	57.691852
7.650000	57.691852
7.660000	57.691852
7.670000	57.691852
7.680000	57.691852
7.690000	57.691852
7.700000	57.691852
7.710000	57.691852
7.720000	57.691852
7.730000	57.691852
7.740000	57.691852
7.750000	57.691852
7.760000	57.691852
7.770000	57.691852
7.780000	57.691852
7.790000	57.691852
7.800000	57.691852
7.810000	57.691852
7.820000	57.691852
7.830000	57.691852
7.840000	57.691852
7.850000	57.691852
7.860000	57.691852
7.870000	57.691852
7.880000	57.691852
7.890000	57.691852
7.900000	57.691852
7.910000	57.691852
7.920000	57.691852
7.930000	57.691852
7.940000	57.691852
7.950000	57.691852
7.960000	57.691852
7.970000	57.691852
7.980000	57.691852
7.990000	57.691852
8.000000	57.579485
8.010000	57.579485
8.020000	57.579485
8.030000	57.579485
8.040000	57.579485
8.050000	57.579485
8.060000	57.579485
8.070000	57.579485
8.080000	57.579485
8.090000	57.579485
8.100000	57.579485
8.110000	57.579485
8.120000	57.579485
8.130000	57.579485
8.140000	57.579485
8.150000	57.579485
8.160000	57.579485
8.170000	57.579485
8.180000	57.579485
8.190000	57.579485
8.200000	57.579485
8.210000	57.579485
8.220000	57.579485
8.230000	57.579485
8.240000	57.579485
8.250000	57.579485
8.260000	57.579485
8.270000	57.579485
8.280000	57.579485
8.290000	57.579485
8.300000	57.579485
8.310000	57.579485
8.320000	57.579485
8.330000	57.579485
8.340000	57.579485
8.350000	57.579485
8.360000	57.579485
8.370000	57.579485
8.380000	57.579485
8.390000	57.579485
8.400000	57.579485
8.410000	57.579485
8.420000	57.579485
8.430000	57.579485
8.440000	57.579485
8.450000	57.579485
8.460000	57.579485
8.470000	57.579485
8.480000	57.579485
8.490000	57.579485
8.500000	57.332583
8.510000	57.332583
8.520000	57.332583
8.530000	57.332583
8.540000	57.332583
8.550000	57.332583
8.560000	57.332583
8.570000	57.332583
8.580000	57.332583
8.590000	57.332583
8.600000	57.332583
8.610000	57.332583
8.620000	57.332583
8.630000	57.332583
8.640000	57.332583
8.650000	57.332583
8.660000	57.332583
8.670000	57.332583
8.680000	57.332583
8.690000	57.332583
8.700000	57.332583
8.710000	57.332583
8.720000	57.332583
8.730000	57.332583
8.740000	57.332583
8.750000	57.332583
8.760000	57.332583
8.770000	57.332583
8.780000	57.332583
8.790000	57.332583
8.800000	57.332583
8.810000	57.332583
8.820000	57.332583
8.830000	57.332583
8.840000	57.332583
8.850000	57.332583
8.860000	57.332583
8.870000	57.332583
8.880000	57.332583
8.890000	57.332583
8.900000	57.332583
8.910000	57.332583
8.920000	57.332583
8.930000	57.332583
8.940000	57.332583
8.950000	57.332583
8.960000	57.332583
8.970000	57.332583
8.980000	57.332583
8.990000	57.332583
9.000000	56.995995
9.010000	56.995995
9.020000	56.995995
9.030000	56.995995
9.040000	56.995995
9.050000	56.995995
9.060000	56.995995
9.070000	56.995995
9.080000	56.995995
9.090000	56.995995
9.100000	56.995995
9.110000	56.995995
9.120000	56.995995
9.130000	56.995995
9.140000	56.995995
9.150000	56.995995
9.160000	56.995995
9.170000	56.995995
9.180000	56.995995
9.190000	56.995995
9.200000	56.995995
9.210000	56.995995
9.220000	56.995995
9.230000	56.995995
9.240000	56.995995
9.250000	56.995995
9.260000	56.995995
9.270000	56.995995
9.280000	56.995995
9.290000	56.995995
9.300000	56.995995
9.310000	56.995995
9.320000	56.995995
9.330000	56.995995
9.340000	56.995995
9.350000	56.995995
9.360000	56.995995
9.370000	56.995995
9.380000	56.995995
9.390000	56.995995
9.400000	56.995995
9.410000	56.995995
9.420000	56.995995
9.430000	56.995995
9.440000	56.995995
9.450000	56.995995
9.460000	56.995995
9.470000	56.995995
9.480000	56.995995
9.490000	56.995995
9.500000	56.570137
9.510000	56.570137
9.520000	56.570137
9.530000	56.570137
9.540000	56.570137
9.550000	56.570137
9.560000	56.570137
9.570000	56.570137
9.580000	56.570137
9.590000	56.570137
9.600000	56.570137
9.610000	56.570137
9.620000	56.570137
9.630000	56.570137
9.640000	56.570137
9.650000	56.570137
9.660000	56.570137
9.670000	56.570137
9.680000	56.570137
9.690000	56.570137
9.700000	56.570137
9.710000	56.570137
9.720000	56.570137
9.730000	56.570137
9.740000	56.570137
9.750000	56.570137
9.760000	56.570137
