LabVIEW Measurement	
Writer_Version	2
Reader_Version	2
Separator	Tab
Decimal_Separator	.
Multi_Headings	No
X_Columns	One
Time_Pref	Absolute
Operator	biomech-dyno
Date	2023/05/24
Time	15:19:49.9492761999999796612
***End_of_Header***	
	
Channels	1	
Samples	10	
Date	2023/05/24	
Time	15:42:17.9948711999999560523	
X_Dimension	Time	
X0	0.0000000000000000E+0	
Delta_X	0.010000	
***End_of_Header***		
X_Value	Untitled	Comment
0.000000	25.020500
0.010000	25.020500
0.020000	25.020500
0.030000	25.020500
0.040000	25.020500
0.050000	25.020500
0.060000	25.020500
0.070000	25.020500
0.080000	25.020500
0.090000	25.020500
0.100000	25.020500
0.110000	25.020500
0.120000	25.020500
0.130000	25.020500
0.140000	25.020500
0.150000	25.020500
0.160000	25.020500
0.170000	25.020500
0.180000	25.020500
0.190000	25.020500
0.200000	25.020500
0.210000	25.020500
0.220000	25.020500
0.230000	25.020500
0.240000	25.020500
0.250000	25.020500
0.260000	25.020500
0.270000	25.020500
0.280000	25.020500
0.290000	25.020500
0.300000	25.020500
0.310000	25.020500
0.320000	25.020500
0.330000	25.020500
0.340000	25.020500
0.350000	25.020500
0.360000	25.020500
0.370000	25.020500
0.380000	25.020500
0.390000	25.020500
0.400000	25.020500
0.410000	25.020500
0.420000	25.020500
0.430000	25.020500
0.440000	25.020500
0.450000	25.020500
0.460000	25.020500
0.470000	25.020500
0.480000	25.020500
0.490000	25.020500
0.500000	25.090190
0.510000	25.090190
0.520000	25.090190
0.530000	25.090190
0.540000	25.090190
0.550000	25.090190
0.560000	25.090190
0.570000	25.090190
0.580000	25.090190
0.590000	25.090190
0.600000	25.090190
0.610000	25.090190
0.620000	25.090190
0.630000	25.090190
0.640000	25.090190
0.650000	25.090190
0.660000	25.090190
0.670000	25.090190
0.680000	25.090190
0.690000	25.090190
0.700000	25.090190
0.710000	25.090190
0.720000	25.090190
0.730000	25.090190
0.740000	25.090190
0.750000	25.090190
0.760000	25.090190
0.770000	25.090190
0.780000	25.090190
0.790000	25.090190
0.800000	25.090190
0.810000	25.090190
0.820000	25.090190
0.830000	25.090190
0.840000	25.090190
0.850000	25.090190
0.860000	25.090190
0.870000	25.090190
0.880000	25.090190
0.890000	25.090190
0.900000	25.090190
0.910000	25.090190
0.920000	25.090190
0.930000	25.090190
0.940000	25.090190
0.950000	25.090190
0.960000	25.090190
0.970000	25.090190
0.980000	25.090190
0.990000	25.090190
1.000000	25.854160
1.010000	25.854160
1.020000	25.854160
1.030000	25.854160
1.040000	25.854160
1.050000	25.854160
1.060000	25.854160
1.070000	25.854160
1.080000	25.854160
1.090000	25.854160
1.100000	25.854160
1.110000	25.854160
1.120000	25.854160
1.130000	25.854160
1.140000	25.854160
1.150000	25.854160
1.160000	25.854160
1.170000	25.854160
1.180000	25.854160
1.190000	25.854160
1.200000	25.854160
1.210000	25.854160
1.220000	25.854160
1.230000	25.854160
1.240000	25.854160
1.250000	25.854160
1.260000	25.854160
1.270000	25.854160
1.280000	25.854160
1.290000	25.854160
1.300000	25.854160
1.310000	25.854160
1.320000	25.854160
1.330000	25.854160
1.340000	25.854160
1.350000	25.854160
1.360000	25.854160
1.370000	25.854160
1.380000	25.854160
1.390000	25.854160
1.400000	25.854160
1.410000	25.854160
1.420000	25.854160
1.430000	25.854160
1.440000	25.854160
1.450000	25.854160
1.460000	25.854160
1.470000	25.854160
1.480000	25.854160
1.490000	25.854160
1.500000	27.654905
1.510000	27.654905
1.520000	27.654905
1.530000	27.654905
1.540000	27.654905
1.550000	27.654905
1.560000	27.654905
1.570000	27.654905
1.580000	27.654905
1.590000	27.654905
1.600000	27.654905
1.610000	27.654905
1.620000	27.654905
1.630000	27.654905
1.640000	27.654905
1.650000	27.654905
1.660000	27.654905
1.670000	27.654905
1.680000	27.654905
1.690000	27.654905
1.700000	27.654905
1.710000	27.654905
1.720000	27.654905
1.730000	27.654905
1.740000	27.654905
1.750000	27.654905
1.760000	27.654905
1.770000	27.654905
1.780000	27.654905
1.790000	27.654905
1.800000	27.654905
1.810000	27.654905
1.820000	27.654905
1.830000	27.654905
1.840000	27.654905
1.850000	27.654905
1.860000	27.654905
1.870000	27.654905
1.880000	27.654905
1.890000	27.654905
1.900000	27.654905
1.910000	27.654905
1.920000	27.654905
1.930000	27.654905
1.940000	27.654905
1.950000	27.654905
1.960000	27.654905
1.970000	27.654905
1.980000	27.654905
1.990000	27.654905
2.000000	30.318284
2.010000	30.318284
2.020000	30.318284
2.030000	30.318284
2.040000	30.318284
2.050000	30.318284
2.060000	30.318284
2.070000	30.318284
2.080000	30.318284
2.090000	30.318284
2.100000	30.318284
2.110000	30.318284
2.120000	30.318284
2.130000	30.318284
2.140000	30.318284
2.150000	30.318284
2.160000	30.318284
2.170000	30.318284
2.180000	30.318284
2.190000	30.318284
2.200000	30.318284
2.210000	30.318284
2.220000	30.318284
2.230000	30.318284
2.240000	30.318284
2.250000	30.318284
2.260000	30.318284
2.270000	30.318284
2.280000	30.318284
2.290000	30.318284
2.300000	30.318284
2.310000	30.318284
2.320000	30.318284
2.330000	30.318284
2.340000	30.318284
2.350000	30.318284
2.360000	30.318284
2.370000	30.318284
2.380000	30.318284
2.390000	30.318284
2.400000	30.318284
2.410000	30.318284
2.420000	30.318284
2.430000	30.318284
2.440000	30.318284
2.450000	30.318284
2.460000	30.318284
2.470000	30.318284
2.480000	30.318284
2.490000	30.318284
2.500000	33.646535
2.510000	33.646535
2.520000	33.646535
2.530000	33.646535
2.540000	33.646535
2.550000	33.646535
2.560000	33.646535
2.570000	33.646535
2.580000	33.646535
2.590000	33.646535
2.600000	33.646535
2.610000	33.646535
2.620000	33.646535
2.630000	33.646535
2.640000	33.646535
2.650000	33.646535
2.660000	33.646535
2.670000	33.646535
2.680000	33.646535
2.690000	33.646535
2.700000	33.646535
2.710000	33.646535
2.720000	33.646535
2.730000	33.646535
2.740000	33.646535
2.750000	33.646535
2.760000	33.646535
2.770000	33.646535
2.780000	33.646535
2.790000	33.646535
2.800000	33.646535
2.810000	33.646535
2.820000	33.646535
2.830000	33.646535
2.840000	33.646535
2.850000	33.646535
2.860000	33.646535
2.870000	33.646535
2.880000	33.646535
2.890000	33.646535
2.900000	33.646535
2.910000	33.646535
2.920000	33.646535
2.930000	33.646535
2.940000	33.646535
2.950000	33.646535
2.960000	33.646535
2.970000	33.646535
2.980000	33.646535
2.990000	33.646535
3.000000	37.453244
3.010000	37.453244
3.020000	37.453244
3.030000	37.453244
3.040000	37.453244
3.050000	37.453244
3.060000	37.453244
3.070000	37.453244
3.080000	37.453244
3.090000	37.453244
3.100000	37.453244
3.110000	37.453244
3.120000	37.453244
3.130000	37.453244
3.140000	37.453244
3.150000	37.453244
3.160000	37.453244
3.170000	37.453244
3.180000	37.453244
3.190000	37.453244
3.200000	37.453244
3.210000	37.453244
3.220000	37.453244
3.230000	37.453244
3.240000	37.453244
3.250000	37.453244
3.260000	37.453244
3.270000	37.453244
3.280000	37.453244
3.290000	37.453244
3.300000	37.453244
3.310000	37.453244
3.320000	37.453244
3.330000	37.453244
3.340000	37.453244
3.350000	37.453244
3.360000	37.453244
3.370000	37.453244
3.380000	37.453244
3.390000	37.453244
3.400000	37.453244
3.410000	37.453244
3.420000	37.453244
3.430000	37.453244
3.440000	37.453244
3.450000	37.453244
3.460000	37.453244
3.470000	37.453244
3.480000	37.453244
3.490000	37.453244
3.500000	41.543997
3.510000	41.543997
3.520000	41.543997
3.530000	41.543997
3.540000	41.543997
3.550000	41.543997
3.560000	41.543997
3.570000	41.543997
3.580000	41.543997
3.590000	41.543997
3.600000	41.543997
3.610000	41.543997
3.620000	41.543997
3.630000	41.543997
3.640000	41.543997
3.650000	41.543997
3.660000	41.543997
3.670000	41.543997
3.680000	41.543997
3.690000	41.543997
3.700000	41.543997
3.710000	41.543997
3.720000	41.543997
3.730000	41.543997
3.740000	41.543997
3.750000	41.543997
3.760000	41.543997
3.770000	41.543997
3.780000	41.543997
3.790000	41.543997
3.800000	41.543997
3.810000	41.543997
3.820000	41.543997
3.830000	41.543997
3.840000	41.543997
3.850000	41.543997
3.860000	41.543997
3.870000	41.543997
3.880000	41.543997
3.890000	41.543997
3.900000	41.543997
3.910000	41.543997
3.920000	41.543997
3.930000	41.543997
3.940000	41.543997
3.950000	41.543997
3.960000	41.543997
3.970000	41.543997
3.980000	41.543997
3.990000	41.543997
4.000000	45.118743
4.010000	45.118743
4.020000	45.118743
4.030000	45.118743
4.040000	45.118743
4.050000	45.118743
4.060000	45.118743
4.070000	45.118743
4.080000	45.118743
4.090000	45.118743
4.100000	45.118743
4.110000	45.118743
4.120000	45.118743
4.130000	45.118743
4.140000	45.118743
4.150000	45.118743
4.160000	45.118743
4.170000	45.118743
4.180000	45.118743
4.190000	45.118743
4.200000	45.118743
4.210000	45.118743
4.220000	45.118743
4.230000	45.118743
4.240000	45.118743
4.250000	45.118743
4.260000	45.118743
4.270000	45.118743
4.280000	45.118743
4.290000	45.118743
4.300000	45.118743
4.310000	45.118743
4.320000	45.118743
4.330000	45.118743
4.340000	45.118743
4.350000	45.118743
4.360000	45.118743
4.370000	45.118743
4.380000	45.118743
4.390000	45.118743
4.400000	45.118743
4.410000	45.118743
4.420000	45.118743
4.430000	45.118743
4.440000	45.118743
4.450000	45.118743
4.460000	45.118743
4.470000	45.118743
4.480000	45.118743
4.490000	45.118743
4.500000	47.855789
4.510000	47.855789
4.520000	47.855789
4.530000	47.855789
4.540000	47.855789
4.550000	47.855789
4.560000	47.855789
4.570000	47.855789
4.580000	47.855789
4.590000	47.855789
4.600000	47.855789
4.610000	47.855789
4.620000	47.855789
4.630000	47.855789
4.640000	47.855789
4.650000	47.855789
4.660000	47.855789
4.670000	47.855789
4.680000	47.855789
4.690000	47.855789
4.700000	47.855789
4.710000	47.855789
4.720000	47.855789
4.730000	47.855789
4.740000	47.855789
4.750000	47.855789
4.760000	47.855789
4.770000	47.855789
4.780000	47.855789
4.790000	47.855789
4.800000	47.855789
4.810000	47.855789
4.820000	47.855789
4.830000	47.855789
4.840000	47.855789
4.850000	47.855789
4.860000	47.855789
4.870000	47.855789
4.880000	47.855789
4.890000	47.855789
4.900000	47.855789
4.910000	47.855789
4.920000	47.855789
4.930000	47.855789
4.940000	47.855789
4.950000	47.855789
4.960000	47.855789
4.970000	47.855789
4.980000	47.855789
4.990000	47.855789
5.000000	49.842689
5.010000	49.842689
5.020000	49.842689
5.030000	49.842689
5.040000	49.842689
5.050000	49.842689
5.060000	49.842689
5.070000	49.842689
5.080000	49.842689
5.090000	49.842689
5.100000	49.842689
5.110000	49.842689
5.120000	49.842689
5.130000	49.842689
5.140000	49.842689
5.150000	49.842689
5.160000	49.842689
5.170000	49.842689
5.180000	49.842689
5.190000	49.842689
5.200000	49.842689
5.210000	49.842689
5.220000	49.842689
5.230000	49.842689
5.240000	49.842689
5.250000	49.842689
5.260000	49.842689
5.270000	49.842689
5.280000	49.842689
5.290000	49.842689
5.300000	49.842689
5.310000	49.842689
5.320000	49.842689
5.330000	49.842689
5.340000	49.842689
5.350000	49.842689
5.360000	49.842689
5.370000	49.842689
5.380000	49.842689
5.390000	49.842689
5.400000	49.842689
5.410000	49.842689
5.420000	49.842689
5.430000	49.842689
5.440000	49.842689
5.450000	49.842689
5.460000	49.842689
5.470000	49.842689
5.480000	49.842689
5.490000	49.842689
5.500000	51.266875
5.510000	51.266875
5.520000	51.266875
5.530000	51.266875
5.540000	51.266875
5.550000	51.266875
5.560000	51.266875
5.570000	51.266875
5.580000	51.266875
5.590000	51.266875
5.600000	51.266875
5.610000	51.266875
5.620000	51.266875
5.630000	51.266875
5.640000	51.266875
5.650000	51.266875
5.660000	51.266875
5.670000	51.266875
5.680000	51.266875
5.690000	51.266875
5.700000	51.266875
5.710000	51.266875
5.720000	51.266875
5.730000	51.266875
5.740000	51.266875
5.750000	51.266875
5.760000	51.266875
5.770000	51.266875
5.780000	51.266875
5.790000	51.266875
5.800000	51.266875
5.810000	51.266875
5.820000	51.266875
5.830000	51.266875
5.840000	51.266875
5.850000	51.266875
5.860000	51.266875
5.870000	51.266875
5.880000	51.266875
5.890000	51.266875
5.900000	51.266875
5.910000	51.266875
5.920000	51.266875
5.930000	51.266875
5.940000	51.266875
5.950000	51.266875
5.960000	51.266875
5.970000	51.266875
5.980000	51.266875
5.990000	51.266875
6.000000	52.238103
6.010000	52.238103
6.020000	52.238103
6.030000	52.238103
6.040000	52.238103
6.050000	52.238103
6.060000	52.238103
6.070000	52.238103
6.080000	52.238103
6.090000	52.238103
6.100000	52.238103
6.110000	52.238103
6.120000	52.238103
6.130000	52.238103
6.140000	52.238103
6.150000	52.238103
6.160000	52.238103
6.170000	52.238103
6.180000	52.238103
6.190000	52.238103
6.200000	52.238103
6.210000	52.238103
6.220000	52.238103
6.230000	52.238103
6.240000	52.238103
6.250000	52.238103
6.260000	52.238103
6.270000	52.238103
6.280000	52.238103
6.290000	52.238103
6.300000	52.238103
6.310000	52.238103
6.320000	52.238103
6.330000	52.238103
6.340000	52.238103
6.350000	52.238103
6.360000	52.238103
6.370000	52.238103
6.380000	52.238103
6.390000	52.238103
6.400000	52.238103
6.410000	52.238103
6.420000	52.238103
6.430000	52.238103
6.440000	52.238103
6.450000	52.238103
6.460000	52.238103
6.470000	52.238103
6.480000	52.238103
6.490000	52.238103
6.500000	52.851891
6.510000	52.851891
6.520000	52.851891
6.530000	52.851891
6.540000	52.851891
6.550000	52.851891
6.560000	52.851891
6.570000	52.851891
6.580000	52.851891
6.590000	52.851891
6.600000	52.851891
6.610000	52.851891
6.620000	52.851891
6.630000	52.851891
6.640000	52.851891
6.650000	52.851891
6.660000	52.851891
6.670000	52.851891
6.680000	52.851891
6.690000	52.851891
6.700000	52.851891
6.710000	52.851891
6.720000	52.851891
6.730000	52.851891
6.740000	52.851891
6.750000	52.851891
6.760000	52.851891
6.770000	52.851891
6.780000	52.851891
6.790000	52.851891
6.800000	52.851891
6.810000	52.851891
6.820000	52.851891
6.830000	52.851891
6.840000	52.851891
6.850000	52.851891
6.860000	52.851891
6.870000	52.851891
6.880000	52.851891
6.890000	52.851891
6.900000	52.851891
6.910000	52.851891
6.920000	52.851891
6.930000	52.851891
6.940000	52.851891
6.950000	52.851891
6.960000	52.851891
6.970000	52.851891
6.980000	52.851891
6.990000	52.851891
7.000000	53.182721
7.010000	53.182721
7.020000	53.182721
7.030000	53.182721
7.040000	53.182721
7.050000	53.182721
7.060000	53.182721
7.070000	53.182721
7.080000	53.182721
7.090000	53.182721
7.100000	53.182721
7.110000	53.182721
7.120000	53.182721
7.130000	53.182721
7.140000	53.182721
7.150000	53.182721
7.160000	53.182721
7.170000	53.182721
7.180000	53.182721
7.190000	53.182721
7.200000	53.182721
7.210000	53.182721
7.220000	53.182721
7.230000	53.182721
7.240000	53.182721
7.250000	53.182721
7.260000	53.182721
7.270000	53.182721
7.280000	53.182721
7.290000	53.182721
7.300000	53.182721
7.310000	53.182721
7.320000	53.182721
7.330000	53.182721
7.340000	53.182721
7.350000	53.182721
7.360000	53.182721
7.370000	53.182721
7.380000	53.182721
7.390000	53.182721
7.400000	53.182721
7.410000	53.182721
7.420000	53.182721
7.430000	53.182721
7.440000	53.182721
7.450000	53.182721
7.460000	53.182721
7.470000	53.182721
7.480000	53.182721
7.490000	53.182721
7.500000	53.300788
7.510000	53.300788
7.520000	53.300788
7.530000	53.300788
7.540000	53.300788
7.550000	53.300788
7.560000	53.300788
7.570000	53.300788
7.580000	53.300788
7.590000	53.300788
7.600000	53.300788
7.610000	53.300788
7.620000	53.300788
7.630000	53.300788
7.640000	53.300788
7.650000	53.300788
7.660000	53.300788
7.670000	53.300788
7.680000	53.300788
7.690000	53.300788
7.700000	53.300788
7.710000	53.300788
7.720000	53.300788
7.730000	53.300788
7.740000	53.300788
7.750000	53.300788
7.760000	53.300788
7.770000	53.300788
7.780000	53.300788
7.790000	53.300788
7.800000	53.300788
7.810000	53.300788
7.820000	53.300788
7.830000	53.300788
7.840000	53.300788
7.850000	53.300788
7.860000	53.300788
7.870000	53.300788
7.880000	53.300788
7.890000	53.300788
7.900000	53.300788
7.910000	53.300788
7.920000	53.300788
7.930000	53.300788
7.940000	53.300788
7.950000	53.300788
7.960000	53.300788
7.970000	53.300788
7.980000	53.300788
7.990000	53.300788
8.000000	53.256722
8.010000	53.256722
8.020000	53.256722
8.030000	53.256722
8.040000	53.256722
8.050000	53.256722
8.060000	53.256722
8.070000	53.256722
8.080000	53.256722
8.090000	53.256722
8.100000	53.256722
8.110000	53.256722
8.120000	53.256722
8.130000	53.256722
8.140000	53.256722
8.150000	53.256722
8.160000	53.256722
8.170000	53.256722
8.180000	53.256722
8.190000	53.256722
8.200000	53.256722
8.210000	53.256722
8.220000	53.256722
8.230000	53.256722
8.240000	53.256722
8.250000	53.256722
8.260000	53.256722
8.270000	53.256722
8.280000	53.256722
8.290000	53.256722
8.300000	53.256722
8.310000	53.256722
8.320000	53.256722
8.330000	53.256722
8.340000	53.256722
8.350000	53.256722
8.360000	53.256722
8.370000	53.256722
8.380000	53.256722
8.390000	53.256722
8.400000	53.256722
8.410000	53.256722
8.420000	53.256722
8.430000	53.256722
8.440000	53.256722
8.450000	53.256722
8.460000	53.256722
8.470000	53.256722
8.480000	53.256722
8.490000	53.256722
8.500000	53.084704
8.510000	53.084704
8.520000	53.084704
8.530000	53.084704
8.540000	53.084704
8.550000	53.084704
8.560000	53.084704
8.570000	53.084704
8.580000	53.084704
8.590000	53.084704
8.600000	53.084704
8.610000	53.084704
8.620000	53.084704
8.630000	53.084704
8.640000	53.084704
8.650000	53.084704
8.660000	53.084704
8.670000	53.084704
8.680000	53.084704
8.690000	53.084704
8.700000	53.084704
8.710000	53.084704
8.720000	53.084704
8.730000	53.084704
8.740000	53.084704
8.750000	53.084704
8.760000	53.084704
8.770000	53.084704
8.780000	53.084704
8.790000	53.084704
8.800000	53.084704
8.810000	53.084704
8.820000	53.084704
8.830000	53.084704
8.840000	53.084704
8.850000	53.084704
8.860000	53.084704
8.870000	53.084704
8.880000	53.084704
8.890000	53.084704
8.900000	53.084704
8.910000	53.084704
8.920000	53.084704
8.930000	53.084704
8.940000	53.084704
8.950000	53.084704
8.960000	53.084704
8.970000	53.084704
8.980000	53.084704
8.990000	53.084704
9.000000	52.824506
9.010000	52.824506
9.020000	52.824506
9.030000	52.824506
9.040000	52.824506
9.050000	52.824506
9.060000	52.824506
9.070000	52.824506
9.080000	52.824506
9.090000	52.824506
9.100000	52.824506
9.110000	52.824506
9.120000	52.824506
9.130000	52.824506
9.140000	52.824506
9.150000	52.824506
9.160000	52.824506
9.170000	52.824506
9.180000	52.824506
9.190000	52.824506
9.200000	52.824506
9.210000	52.824506
9.220000	52.824506
9.230000	52.824506
9.240000	52.824506
9.250000	52.824506
9.260000	52.824506
9.270000	52.824506
9.280000	52.824506
9.290000	52.824506
9.300000	52.824506
9.310000	52.824506
9.320000	52.824506
9.330000	52.824506
9.340000	52.824506
9.350000	52.824506
9.360000	52.824506
9.370000	52.824506
9.380000	52.824506
9.390000	52.824506
9.400000	52.824506
9.410000	52.824506
9.420000	52.824506
9.430000	52.824506
9.440000	52.824506
9.450000	52.824506
9.460000	52.824506
9.470000	52.824506
9.480000	52.824506
9.490000	52.824506
9.500000	52.494526
9.510000	52.494526
9.520000	52.494526
9.530000	52.494526
9.540000	52.494526
9.550000	52.494526
9.560000	52.494526
9.570000	52.494526
9.580000	52.494526
9.590000	52.494526
9.600000	52.494526
9.610000	52.494526
9.620000	52.494526
9.630000	52.494526
9.640000	52.494526
9.650000	52.494526
9.660000	52.494526
9.670000	52.494526
9.680000	52.494526
9.690000	52.494526
9.700000	52.494526
9.710000	52.494526
9.720000	52.494526
9.730000	52.494526
9.740000	52.494526
9.750000	52.494526
9.760000	52.494526
