LabVIEW Measurement	
Writer_Version	2
Reader_Version	2
Separator	Tab
Decimal_Separator	.
Multi_Headings	No
X_Columns	One
Time_Pref	Absolute
Operator	biomech-dyno
Date	2023/05/23
Time	16:26:31.1792034999998606061
***End_of_Header***	
	
Channels	1	
Samples	10	
Date	2023/05/23	
Time	17:28:27.4674558999997113508	
X_Dimension	Time	
X0	0.0000000000000000E+0	
Delta_X	0.010000	
***End_of_Header***		
X_Value	Untitled	Comment
0.000000	25.120859
0.010000	25.120859
0.020000	25.120859
0.030000	25.120859
0.040000	25.120859
0.050000	25.120859
0.060000	25.120859
0.070000	25.120859
0.080000	25.120859
0.090000	25.120859
0.100000	25.120859
0.110000	25.120859
0.120000	25.120859
0.130000	25.120859
0.140000	25.120859
0.150000	25.120859
0.160000	25.120859
0.170000	25.120859
0.180000	25.120859
0.190000	25.120859
0.200000	25.120859
0.210000	25.120859
0.220000	25.120859
0.230000	25.120859
0.240000	25.120859
0.250000	25.120859
0.260000	25.120859
0.270000	25.120859
0.280000	25.120859
0.290000	25.120859
0.300000	25.120859
0.310000	25.120859
0.320000	25.120859
0.330000	25.120859
0.340000	25.120859
0.350000	25.120859
0.360000	25.120859
0.370000	25.120859
0.380000	25.120859
0.390000	25.120859
0.400000	25.120859
0.410000	25.120859
0.420000	25.120859
0.430000	25.120859
0.440000	25.120859
0.450000	25.120859
0.460000	25.120859
0.470000	25.120859
0.480000	25.120859
0.490000	25.120859
0.500000	25.180196
0.510000	25.180196
0.520000	25.180196
0.530000	25.180196
0.540000	25.180196
0.550000	25.180196
0.560000	25.180196
0.570000	25.180196
0.580000	25.180196
0.590000	25.180196
0.600000	25.180196
0.610000	25.180196
0.620000	25.180196
0.630000	25.180196
0.640000	25.180196
0.650000	25.180196
0.660000	25.180196
0.670000	25.180196
0.680000	25.180196
0.690000	25.180196
0.700000	25.180196
0.710000	25.180196
0.720000	25.180196
0.730000	25.180196
0.740000	25.180196
0.750000	25.180196
0.760000	25.180196
0.770000	25.180196
0.780000	25.180196
0.790000	25.180196
0.800000	25.180196
0.810000	25.180196
0.820000	25.180196
0.830000	25.180196
0.840000	25.180196
0.850000	25.180196
0.860000	25.180196
0.870000	25.180196
0.880000	25.180196
0.890000	25.180196
0.900000	25.180196
0.910000	25.180196
0.920000	25.180196
0.930000	25.180196
0.940000	25.180196
0.950000	25.180196
0.960000	25.180196
0.970000	25.180196
0.980000	25.180196
0.990000	25.180196
1.000000	25.831191
1.010000	25.831191
1.020000	25.831191
1.030000	25.831191
1.040000	25.831191
1.050000	25.831191
1.060000	25.831191
1.070000	25.831191
1.080000	25.831191
1.090000	25.831191
1.100000	25.831191
1.110000	25.831191
1.120000	25.831191
1.130000	25.831191
1.140000	25.831191
1.150000	25.831191
1.160000	25.831191
1.170000	25.831191
1.180000	25.831191
1.190000	25.831191
1.200000	25.831191
1.210000	25.831191
1.220000	25.831191
1.230000	25.831191
1.240000	25.831191
1.250000	25.831191
1.260000	25.831191
1.270000	25.831191
1.280000	25.831191
1.290000	25.831191
1.300000	25.831191
1.310000	25.831191
1.320000	25.831191
1.330000	25.831191
1.340000	25.831191
1.350000	25.831191
1.360000	25.831191
1.370000	25.831191
1.380000	25.831191
1.390000	25.831191
1.400000	25.831191
1.410000	25.831191
1.420000	25.831191
1.430000	25.831191
1.440000	25.831191
1.450000	25.831191
1.460000	25.831191
1.470000	25.831191
1.480000	25.831191
1.490000	25.831191
1.500000	27.366232
1.510000	27.366232
1.520000	27.366232
1.530000	27.366232
1.540000	27.366232
1.550000	27.366232
1.560000	27.366232
1.570000	27.366232
1.580000	27.366232
1.590000	27.366232
1.600000	27.366232
1.610000	27.366232
1.620000	27.366232
1.630000	27.366232
1.640000	27.366232
1.650000	27.366232
1.660000	27.366232
1.670000	27.366232
1.680000	27.366232
1.690000	27.366232
1.700000	27.366232
1.710000	27.366232
1.720000	27.366232
1.730000	27.366232
1.740000	27.366232
1.750000	27.366232
1.760000	27.366232
1.770000	27.366232
1.780000	27.366232
1.790000	27.366232
1.800000	27.366232
1.810000	27.366232
1.820000	27.366232
1.830000	27.366232
1.840000	27.366232
1.850000	27.366232
1.860000	27.366232
1.870000	27.366232
1.880000	27.366232
1.890000	27.366232
1.900000	27.366232
1.910000	27.366232
1.920000	27.366232
1.930000	27.366232
1.940000	27.366232
1.950000	27.366232
1.960000	27.366232
1.970000	27.366232
1.980000	27.366232
1.990000	27.366232
2.000000	29.637240
2.010000	29.637240
2.020000	29.637240
2.030000	29.637240
2.040000	29.637240
2.050000	29.637240
2.060000	29.637240
2.070000	29.637240
2.080000	29.637240
2.090000	29.637240
2.100000	29.637240
2.110000	29.637240
2.120000	29.637240
2.130000	29.637240
2.140000	29.637240
2.150000	29.637240
2.160000	29.637240
2.170000	29.637240
2.180000	29.637240
2.190000	29.637240
2.200000	29.637240
2.210000	29.637240
2.220000	29.637240
2.230000	29.637240
2.240000	29.637240
2.250000	29.637240
2.260000	29.637240
2.270000	29.637240
2.280000	29.637240
2.290000	29.637240
2.300000	29.637240
2.310000	29.637240
2.320000	29.637240
2.330000	29.637240
2.340000	29.637240
2.350000	29.637240
2.360000	29.637240
2.370000	29.637240
2.380000	29.637240
2.390000	29.637240
2.400000	29.637240
2.410000	29.637240
2.420000	29.637240
2.430000	29.637240
2.440000	29.637240
2.450000	29.637240
2.460000	29.637240
2.470000	29.637240
2.480000	29.637240
2.490000	29.637240
2.500000	32.483020
2.510000	32.483020
2.520000	32.483020
2.530000	32.483020
2.540000	32.483020
2.550000	32.483020
2.560000	32.483020
2.570000	32.483020
2.580000	32.483020
2.590000	32.483020
2.600000	32.483020
2.610000	32.483020
2.620000	32.483020
2.630000	32.483020
2.640000	32.483020
2.650000	32.483020
2.660000	32.483020
2.670000	32.483020
2.680000	32.483020
2.690000	32.483020
2.700000	32.483020
2.710000	32.483020
2.720000	32.483020
2.730000	32.483020
2.740000	32.483020
2.750000	32.483020
2.760000	32.483020
2.770000	32.483020
2.780000	32.483020
2.790000	32.483020
2.800000	32.483020
2.810000	32.483020
2.820000	32.483020
2.830000	32.483020
2.840000	32.483020
2.850000	32.483020
2.860000	32.483020
2.870000	32.483020
2.880000	32.483020
2.890000	32.483020
2.900000	32.483020
2.910000	32.483020
2.920000	32.483020
2.930000	32.483020
2.940000	32.483020
2.950000	32.483020
2.960000	32.483020
2.970000	32.483020
2.980000	32.483020
2.990000	32.483020
3.000000	35.762086
3.010000	35.762086
3.020000	35.762086
3.030000	35.762086
3.040000	35.762086
3.050000	35.762086
3.060000	35.762086
3.070000	35.762086
3.080000	35.762086
3.090000	35.762086
3.100000	35.762086
3.110000	35.762086
3.120000	35.762086
3.130000	35.762086
3.140000	35.762086
3.150000	35.762086
3.160000	35.762086
3.170000	35.762086
3.180000	35.762086
3.190000	35.762086
3.200000	35.762086
3.210000	35.762086
3.220000	35.762086
3.230000	35.762086
3.240000	35.762086
3.250000	35.762086
3.260000	35.762086
3.270000	35.762086
3.280000	35.762086
3.290000	35.762086
3.300000	35.762086
3.310000	35.762086
3.320000	35.762086
3.330000	35.762086
3.340000	35.762086
3.350000	35.762086
3.360000	35.762086
3.370000	35.762086
3.380000	35.762086
3.390000	35.762086
3.400000	35.762086
3.410000	35.762086
3.420000	35.762086
3.430000	35.762086
3.440000	35.762086
3.450000	35.762086
3.460000	35.762086
3.470000	35.762086
3.480000	35.762086
3.490000	35.762086
3.500000	39.285371
3.510000	39.285371
3.520000	39.285371
3.530000	39.285371
3.540000	39.285371
3.550000	39.285371
3.560000	39.285371
3.570000	39.285371
3.580000	39.285371
3.590000	39.285371
3.600000	39.285371
3.610000	39.285371
3.620000	39.285371
3.630000	39.285371
3.640000	39.285371
3.650000	39.285371
3.660000	39.285371
3.670000	39.285371
3.680000	39.285371
3.690000	39.285371
3.700000	39.285371
3.710000	39.285371
3.720000	39.285371
3.730000	39.285371
3.740000	39.285371
3.750000	39.285371
3.760000	39.285371
3.770000	39.285371
3.780000	39.285371
3.790000	39.285371
3.800000	39.285371
3.810000	39.285371
3.820000	39.285371
3.830000	39.285371
3.840000	39.285371
3.850000	39.285371
3.860000	39.285371
3.870000	39.285371
3.880000	39.285371
3.890000	39.285371
3.900000	39.285371
3.910000	39.285371
3.920000	39.285371
3.930000	39.285371
3.940000	39.285371
3.950000	39.285371
3.960000	39.285371
3.970000	39.285371
3.980000	39.285371
3.990000	39.285371
4.000000	42.362877
4.010000	42.362877
4.020000	42.362877
4.030000	42.362877
4.040000	42.362877
4.050000	42.362877
4.060000	42.362877
4.070000	42.362877
4.080000	42.362877
4.090000	42.362877
4.100000	42.362877
4.110000	42.362877
4.120000	42.362877
4.130000	42.362877
4.140000	42.362877
4.150000	42.362877
4.160000	42.362877
4.170000	42.362877
4.180000	42.362877
4.190000	42.362877
4.200000	42.362877
4.210000	42.362877
4.220000	42.362877
4.230000	42.362877
4.240000	42.362877
4.250000	42.362877
4.260000	42.362877
4.270000	42.362877
4.280000	42.362877
4.290000	42.362877
4.300000	42.362877
4.310000	42.362877
4.320000	42.362877
4.330000	42.362877
4.340000	42.362877
4.350000	42.362877
4.360000	42.362877
4.370000	42.362877
4.380000	42.362877
4.390000	42.362877
4.400000	42.362877
4.410000	42.362877
4.420000	42.362877
4.430000	42.362877
4.440000	42.362877
4.450000	42.362877
4.460000	42.362877
4.470000	42.362877
4.480000	42.362877
4.490000	42.362877
4.500000	44.683012
4.510000	44.683012
4.520000	44.683012
4.530000	44.683012
4.540000	44.683012
4.550000	44.683012
4.560000	44.683012
4.570000	44.683012
4.580000	44.683012
4.590000	44.683012
4.600000	44.683012
4.610000	44.683012
4.620000	44.683012
4.630000	44.683012
4.640000	44.683012
4.650000	44.683012
4.660000	44.683012
4.670000	44.683012
4.680000	44.683012
4.690000	44.683012
4.700000	44.683012
4.710000	44.683012
4.720000	44.683012
4.730000	44.683012
4.740000	44.683012
4.750000	44.683012
4.760000	44.683012
4.770000	44.683012
4.780000	44.683012
4.790000	44.683012
4.800000	44.683012
4.810000	44.683012
4.820000	44.683012
4.830000	44.683012
4.840000	44.683012
4.850000	44.683012
4.860000	44.683012
4.870000	44.683012
4.880000	44.683012
4.890000	44.683012
4.900000	44.683012
4.910000	44.683012
4.920000	44.683012
4.930000	44.683012
4.940000	44.683012
4.950000	44.683012
4.960000	44.683012
4.970000	44.683012
4.980000	44.683012
4.990000	44.683012
5.000000	46.362232
5.010000	46.362232
5.020000	46.362232
5.030000	46.362232
5.040000	46.362232
5.050000	46.362232
5.060000	46.362232
5.070000	46.362232
5.080000	46.362232
5.090000	46.362232
5.100000	46.362232
5.110000	46.362232
5.120000	46.362232
5.130000	46.362232
5.140000	46.362232
5.150000	46.362232
5.160000	46.362232
5.170000	46.362232
5.180000	46.362232
5.190000	46.362232
5.200000	46.362232
5.210000	46.362232
5.220000	46.362232
5.230000	46.362232
5.240000	46.362232
5.250000	46.362232
5.260000	46.362232
5.270000	46.362232
5.280000	46.362232
5.290000	46.362232
5.300000	46.362232
5.310000	46.362232
5.320000	46.362232
5.330000	46.362232
5.340000	46.362232
5.350000	46.362232
5.360000	46.362232
5.370000	46.362232
5.380000	46.362232
5.390000	46.362232
5.400000	46.362232
5.410000	46.362232
5.420000	46.362232
5.430000	46.362232
5.440000	46.362232
5.450000	46.362232
5.460000	46.362232
5.470000	46.362232
5.480000	46.362232
5.490000	46.362232
5.500000	47.553136
5.510000	47.553136
5.520000	47.553136
5.530000	47.553136
5.540000	47.553136
5.550000	47.553136
5.560000	47.553136
5.570000	47.553136
5.580000	47.553136
5.590000	47.553136
5.600000	47.553136
5.610000	47.553136
5.620000	47.553136
5.630000	47.553136
5.640000	47.553136
5.650000	47.553136
5.660000	47.553136
5.670000	47.553136
5.680000	47.553136
5.690000	47.553136
5.700000	47.553136
5.710000	47.553136
5.720000	47.553136
5.730000	47.553136
5.740000	47.553136
5.750000	47.553136
5.760000	47.553136
5.770000	47.553136
5.780000	47.553136
5.790000	47.553136
5.800000	47.553136
5.810000	47.553136
5.820000	47.553136
5.830000	47.553136
5.840000	47.553136
5.850000	47.553136
5.860000	47.553136
5.870000	47.553136
5.880000	47.553136
5.890000	47.553136
5.900000	47.553136
5.910000	47.553136
5.920000	47.553136
5.930000	47.553136
5.940000	47.553136
5.950000	47.553136
5.960000	47.553136
5.970000	47.553136
5.980000	47.553136
5.990000	47.553136
6.000000	48.351217
6.010000	48.351217
6.020000	48.351217
6.030000	48.351217
6.040000	48.351217
6.050000	48.351217
6.060000	48.351217
6.070000	48.351217
6.080000	48.351217
6.090000	48.351217
6.100000	48.351217
6.110000	48.351217
6.120000	48.351217
6.130000	48.351217
6.140000	48.351217
6.150000	48.351217
6.160000	48.351217
6.170000	48.351217
6.180000	48.351217
6.190000	48.351217
6.200000	48.351217
6.210000	48.351217
6.220000	48.351217
6.230000	48.351217
6.240000	48.351217
6.250000	48.351217
6.260000	48.351217
6.270000	48.351217
6.280000	48.351217
6.290000	48.351217
6.300000	48.351217
6.310000	48.351217
6.320000	48.351217
6.330000	48.351217
6.340000	48.351217
6.350000	48.351217
6.360000	48.351217
6.370000	48.351217
6.380000	48.351217
6.390000	48.351217
6.400000	48.351217
6.410000	48.351217
6.420000	48.351217
6.430000	48.351217
6.440000	48.351217
6.450000	48.351217
6.460000	48.351217
6.470000	48.351217
6.480000	48.351217
6.490000	48.351217
6.500000	48.851699
6.510000	48.851699
6.520000	48.851699
6.530000	48.851699
6.540000	48.851699
6.550000	48.851699
6.560000	48.851699
6.570000	48.851699
6.580000	48.851699
6.590000	48.851699
6.600000	48.851699
6.610000	48.851699
6.620000	48.851699
6.630000	48.851699
6.640000	48.851699
6.650000	48.851699
6.660000	48.851699
6.670000	48.851699
6.680000	48.851699
6.690000	48.851699
6.700000	48.851699
6.710000	48.851699
6.720000	48.851699
6.730000	48.851699
6.740000	48.851699
6.750000	48.851699
6.760000	48.851699
6.770000	48.851699
6.780000	48.851699
6.790000	48.851699
6.800000	48.851699
6.810000	48.851699
6.820000	48.851699
6.830000	48.851699
6.840000	48.851699
6.850000	48.851699
6.860000	48.851699
6.870000	48.851699
6.880000	48.851699
6.890000	48.851699
6.900000	48.851699
6.910000	48.851699
6.920000	48.851699
6.930000	48.851699
6.940000	48.851699
6.950000	48.851699
6.960000	48.851699
6.970000	48.851699
6.980000	48.851699
6.990000	48.851699
7.000000	49.130626
7.010000	49.130626
7.020000	49.130626
7.030000	49.130626
7.040000	49.130626
7.050000	49.130626
7.060000	49.130626
7.070000	49.130626
7.080000	49.130626
7.090000	49.130626
7.100000	49.130626
7.110000	49.130626
7.120000	49.130626
7.130000	49.130626
7.140000	49.130626
7.150000	49.130626
7.160000	49.130626
7.170000	49.130626
7.180000	49.130626
7.190000	49.130626
7.200000	49.130626
7.210000	49.130626
7.220000	49.130626
7.230000	49.130626
7.240000	49.130626
7.250000	49.130626
7.260000	49.130626
7.270000	49.130626
7.280000	49.130626
7.290000	49.130626
7.300000	49.130626
7.310000	49.130626
7.320000	49.130626
7.330000	49.130626
7.340000	49.130626
7.350000	49.130626
7.360000	49.130626
7.370000	49.130626
7.380000	49.130626
7.390000	49.130626
7.400000	49.130626
7.410000	49.130626
7.420000	49.130626
7.430000	49.130626
7.440000	49.130626
7.450000	49.130626
7.460000	49.130626
7.470000	49.130626
7.480000	49.130626
7.490000	49.130626
7.500000	49.226954
7.510000	49.226954
7.520000	49.226954
7.530000	49.226954
7.540000	49.226954
7.550000	49.226954
7.560000	49.226954
7.570000	49.226954
7.580000	49.226954
7.590000	49.226954
7.600000	49.226954
7.610000	49.226954
7.620000	49.226954
7.630000	49.226954
7.640000	49.226954
7.650000	49.226954
7.660000	49.226954
7.670000	49.226954
7.680000	49.226954
7.690000	49.226954
7.700000	49.226954
7.710000	49.226954
7.720000	49.226954
7.730000	49.226954
7.740000	49.226954
7.750000	49.226954
7.760000	49.226954
7.770000	49.226954
7.780000	49.226954
7.790000	49.226954
7.800000	49.226954
7.810000	49.226954
7.820000	49.226954
7.830000	49.226954
7.840000	49.226954
7.850000	49.226954
7.860000	49.226954
7.870000	49.226954
7.880000	49.226954
7.890000	49.226954
7.900000	49.226954
7.910000	49.226954
7.920000	49.226954
7.930000	49.226954
7.940000	49.226954
7.950000	49.226954
7.960000	49.226954
7.970000	49.226954
7.980000	49.226954
7.990000	49.226954
8.000000	49.171616
8.010000	49.171616
8.020000	49.171616
8.030000	49.171616
8.040000	49.171616
8.050000	49.171616
8.060000	49.171616
8.070000	49.171616
8.080000	49.171616
8.090000	49.171616
8.100000	49.171616
8.110000	49.171616
8.120000	49.171616
8.130000	49.171616
8.140000	49.171616
8.150000	49.171616
8.160000	49.171616
8.170000	49.171616
8.180000	49.171616
8.190000	49.171616
8.200000	49.171616
8.210000	49.171616
8.220000	49.171616
8.230000	49.171616
8.240000	49.171616
8.250000	49.171616
8.260000	49.171616
8.270000	49.171616
8.280000	49.171616
8.290000	49.171616
8.300000	49.171616
8.310000	49.171616
8.320000	49.171616
8.330000	49.171616
8.340000	49.171616
8.350000	49.171616
8.360000	49.171616
8.370000	49.171616
8.380000	49.171616
8.390000	49.171616
8.400000	49.171616
8.410000	49.171616
8.420000	49.171616
8.430000	49.171616
8.440000	49.171616
8.450000	49.171616
8.460000	49.171616
8.470000	49.171616
8.480000	49.171616
8.490000	49.171616
8.500000	49.025831
8.510000	49.025831
8.520000	49.025831
8.530000	49.025831
8.540000	49.025831
8.550000	49.025831
8.560000	49.025831
8.570000	49.025831
8.580000	49.025831
8.590000	49.025831
8.600000	49.025831
8.610000	49.025831
8.620000	49.025831
8.630000	49.025831
8.640000	49.025831
8.650000	49.025831
8.660000	49.025831
8.670000	49.025831
8.680000	49.025831
8.690000	49.025831
8.700000	49.025831
8.710000	49.025831
8.720000	49.025831
8.730000	49.025831
8.740000	49.025831
8.750000	49.025831
8.760000	49.025831
8.770000	49.025831
8.780000	49.025831
8.790000	49.025831
8.800000	49.025831
8.810000	49.025831
8.820000	49.025831
8.830000	49.025831
8.840000	49.025831
8.850000	49.025831
8.860000	49.025831
8.870000	49.025831
8.880000	49.025831
8.890000	49.025831
8.900000	49.025831
8.910000	49.025831
8.920000	49.025831
8.930000	49.025831
8.940000	49.025831
8.950000	49.025831
8.960000	49.025831
8.970000	49.025831
8.980000	49.025831
8.990000	49.025831
9.000000	48.795760
9.010000	48.795760
9.020000	48.795760
9.030000	48.795760
9.040000	48.795760
9.050000	48.795760
9.060000	48.795760
9.070000	48.795760
9.080000	48.795760
9.090000	48.795760
9.100000	48.795760
9.110000	48.795760
9.120000	48.795760
9.130000	48.795760
9.140000	48.795760
9.150000	48.795760
9.160000	48.795760
9.170000	48.795760
9.180000	48.795760
9.190000	48.795760
9.200000	48.795760
9.210000	48.795760
9.220000	48.795760
9.230000	48.795760
9.240000	48.795760
9.250000	48.795760
9.260000	48.795760
9.270000	48.795760
9.280000	48.795760
9.290000	48.795760
9.300000	48.795760
9.310000	48.795760
9.320000	48.795760
9.330000	48.795760
9.340000	48.795760
9.350000	48.795760
9.360000	48.795760
9.370000	48.795760
9.380000	48.795760
9.390000	48.795760
9.400000	48.795760
9.410000	48.795760
9.420000	48.795760
9.430000	48.795760
9.440000	48.795760
9.450000	48.795760
9.460000	48.795760
9.470000	48.795760
9.480000	48.795760
9.490000	48.795760
9.500000	48.499819
9.510000	48.499819
9.520000	48.499819
9.530000	48.499819
9.540000	48.499819
9.550000	48.499819
9.560000	48.499819
9.570000	48.499819
9.580000	48.499819
9.590000	48.499819
9.600000	48.499819
9.610000	48.499819
9.620000	48.499819
9.630000	48.499819
9.640000	48.499819
9.650000	48.499819
9.660000	48.499819
9.670000	48.499819
9.680000	48.499819
9.690000	48.499819
9.700000	48.499819
9.710000	48.499819
9.720000	48.499819
9.730000	48.499819
9.740000	48.499819
9.750000	48.499819
9.760000	48.499819
