LabVIEW Measurement	
Writer_Version	2
Reader_Version	2
Separator	Tab
Decimal_Separator	.
Multi_Headings	No
X_Columns	One
Time_Pref	Absolute
Operator	biomech-dyno
Date	2023/05/24
Time	16:31:59.7770512999995510441
***End_of_Header***	
	
Channels	1	
Samples	10	
Date	2023/05/24	
Time	16:41:45.1775345999998614703	
X_Dimension	Time	
X0	0.0000000000000000E+0	
Delta_X	0.010000	
***End_of_Header***		
X_Value	Untitled	Comment
0.000000	25.086918
0.010000	25.086918
0.020000	25.086918
0.030000	25.086918
0.040000	25.086918
0.050000	25.086918
0.060000	25.086918
0.070000	25.086918
0.080000	25.086918
0.090000	25.086918
0.100000	25.086918
0.110000	25.086918
0.120000	25.086918
0.130000	25.086918
0.140000	25.086918
0.150000	25.086918
0.160000	25.086918
0.170000	25.086918
0.180000	25.086918
0.190000	25.086918
0.200000	25.086918
0.210000	25.086918
0.220000	25.086918
0.230000	25.086918
0.240000	25.086918
0.250000	25.086918
0.260000	25.086918
0.270000	25.086918
0.280000	25.086918
0.290000	25.086918
0.300000	25.086918
0.310000	25.086918
0.320000	25.086918
0.330000	25.086918
0.340000	25.086918
0.350000	25.086918
0.360000	25.086918
0.370000	25.086918
0.380000	25.086918
0.390000	25.086918
0.400000	25.086918
0.410000	25.086918
0.420000	25.086918
0.430000	25.086918
0.440000	25.086918
0.450000	25.086918
0.460000	25.086918
0.470000	25.086918
0.480000	25.086918
0.490000	25.086918
0.500000	25.148232
0.510000	25.148232
0.520000	25.148232
0.530000	25.148232
0.540000	25.148232
0.550000	25.148232
0.560000	25.148232
0.570000	25.148232
0.580000	25.148232
0.590000	25.148232
0.600000	25.148232
0.610000	25.148232
0.620000	25.148232
0.630000	25.148232
0.640000	25.148232
0.650000	25.148232
0.660000	25.148232
0.670000	25.148232
0.680000	25.148232
0.690000	25.148232
0.700000	25.148232
0.710000	25.148232
0.720000	25.148232
0.730000	25.148232
0.740000	25.148232
0.750000	25.148232
0.760000	25.148232
0.770000	25.148232
0.780000	25.148232
0.790000	25.148232
0.800000	25.148232
0.810000	25.148232
0.820000	25.148232
0.830000	25.148232
0.840000	25.148232
0.850000	25.148232
0.860000	25.148232
0.870000	25.148232
0.880000	25.148232
0.890000	25.148232
0.900000	25.148232
0.910000	25.148232
0.920000	25.148232
0.930000	25.148232
0.940000	25.148232
0.950000	25.148232
0.960000	25.148232
0.970000	25.148232
0.980000	25.148232
0.990000	25.148232
1.000000	25.805011
1.010000	25.805011
1.020000	25.805011
1.030000	25.805011
1.040000	25.805011
1.050000	25.805011
1.060000	25.805011
1.070000	25.805011
1.080000	25.805011
1.090000	25.805011
1.100000	25.805011
1.110000	25.805011
1.120000	25.805011
1.130000	25.805011
1.140000	25.805011
1.150000	25.805011
1.160000	25.805011
1.170000	25.805011
1.180000	25.805011
1.190000	25.805011
1.200000	25.805011
1.210000	25.805011
1.220000	25.805011
1.230000	25.805011
1.240000	25.805011
1.250000	25.805011
1.260000	25.805011
1.270000	25.805011
1.280000	25.805011
1.290000	25.805011
1.300000	25.805011
1.310000	25.805011
1.320000	25.805011
1.330000	25.805011
1.340000	25.805011
1.350000	25.805011
1.360000	25.805011
1.370000	25.805011
1.380000	25.805011
1.390000	25.805011
1.400000	25.805011
1.410000	25.805011
1.420000	25.805011
1.430000	25.805011
1.440000	25.805011
1.450000	25.805011
1.460000	25.805011
1.470000	25.805011
1.480000	25.805011
1.490000	25.805011
1.500000	27.351094
1.510000	27.351094
1.520000	27.351094
1.530000	27.351094
1.540000	27.351094
1.550000	27.351094
1.560000	27.351094
1.570000	27.351094
1.580000	27.351094
1.590000	27.351094
1.600000	27.351094
1.610000	27.351094
1.620000	27.351094
1.630000	27.351094
1.640000	27.351094
1.650000	27.351094
1.660000	27.351094
1.670000	27.351094
1.680000	27.351094
1.690000	27.351094
1.700000	27.351094
1.710000	27.351094
1.720000	27.351094
1.730000	27.351094
1.740000	27.351094
1.750000	27.351094
1.760000	27.351094
1.770000	27.351094
1.780000	27.351094
1.790000	27.351094
1.800000	27.351094
1.810000	27.351094
1.820000	27.351094
1.830000	27.351094
1.840000	27.351094
1.850000	27.351094
1.860000	27.351094
1.870000	27.351094
1.880000	27.351094
1.890000	27.351094
1.900000	27.351094
1.910000	27.351094
1.920000	27.351094
1.930000	27.351094
1.940000	27.351094
1.950000	27.351094
1.960000	27.351094
1.970000	27.351094
1.980000	27.351094
1.990000	27.351094
2.000000	29.627958
2.010000	29.627958
2.020000	29.627958
2.030000	29.627958
2.040000	29.627958
2.050000	29.627958
2.060000	29.627958
2.070000	29.627958
2.080000	29.627958
2.090000	29.627958
2.100000	29.627958
2.110000	29.627958
2.120000	29.627958
2.130000	29.627958
2.140000	29.627958
2.150000	29.627958
2.160000	29.627958
2.170000	29.627958
2.180000	29.627958
2.190000	29.627958
2.200000	29.627958
2.210000	29.627958
2.220000	29.627958
2.230000	29.627958
2.240000	29.627958
2.250000	29.627958
2.260000	29.627958
2.270000	29.627958
2.280000	29.627958
2.290000	29.627958
2.300000	29.627958
2.310000	29.627958
2.320000	29.627958
2.330000	29.627958
2.340000	29.627958
2.350000	29.627958
2.360000	29.627958
2.370000	29.627958
2.380000	29.627958
2.390000	29.627958
2.400000	29.627958
2.410000	29.627958
2.420000	29.627958
2.430000	29.627958
2.440000	29.627958
2.450000	29.627958
2.460000	29.627958
2.470000	29.627958
2.480000	29.627958
2.490000	29.627958
2.500000	32.472142
2.510000	32.472142
2.520000	32.472142
2.530000	32.472142
2.540000	32.472142
2.550000	32.472142
2.560000	32.472142
2.570000	32.472142
2.580000	32.472142
2.590000	32.472142
2.600000	32.472142
2.610000	32.472142
2.620000	32.472142
2.630000	32.472142
2.640000	32.472142
2.650000	32.472142
2.660000	32.472142
2.670000	32.472142
2.680000	32.472142
2.690000	32.472142
2.700000	32.472142
2.710000	32.472142
2.720000	32.472142
2.730000	32.472142
2.740000	32.472142
2.750000	32.472142
2.760000	32.472142
2.770000	32.472142
2.780000	32.472142
2.790000	32.472142
2.800000	32.472142
2.810000	32.472142
2.820000	32.472142
2.830000	32.472142
2.840000	32.472142
2.850000	32.472142
2.860000	32.472142
2.870000	32.472142
2.880000	32.472142
2.890000	32.472142
2.900000	32.472142
2.910000	32.472142
2.920000	32.472142
2.930000	32.472142
2.940000	32.472142
2.950000	32.472142
2.960000	32.472142
2.970000	32.472142
2.980000	32.472142
2.990000	32.472142
3.000000	35.772632
3.010000	35.772632
3.020000	35.772632
3.030000	35.772632
3.040000	35.772632
3.050000	35.772632
3.060000	35.772632
3.070000	35.772632
3.080000	35.772632
3.090000	35.772632
3.100000	35.772632
3.110000	35.772632
3.120000	35.772632
3.130000	35.772632
3.140000	35.772632
3.150000	35.772632
3.160000	35.772632
3.170000	35.772632
3.180000	35.772632
3.190000	35.772632
3.200000	35.772632
3.210000	35.772632
3.220000	35.772632
3.230000	35.772632
3.240000	35.772632
3.250000	35.772632
3.260000	35.772632
3.270000	35.772632
3.280000	35.772632
3.290000	35.772632
3.300000	35.772632
3.310000	35.772632
3.320000	35.772632
3.330000	35.772632
3.340000	35.772632
3.350000	35.772632
3.360000	35.772632
3.370000	35.772632
3.380000	35.772632
3.390000	35.772632
3.400000	35.772632
3.410000	35.772632
3.420000	35.772632
3.430000	35.772632
3.440000	35.772632
3.450000	35.772632
3.460000	35.772632
3.470000	35.772632
3.480000	35.772632
3.490000	35.772632
3.500000	39.192140
3.510000	39.192140
3.520000	39.192140
3.530000	39.192140
3.540000	39.192140
3.550000	39.192140
3.560000	39.192140
3.570000	39.192140
3.580000	39.192140
3.590000	39.192140
3.600000	39.192140
3.610000	39.192140
3.620000	39.192140
3.630000	39.192140
3.640000	39.192140
3.650000	39.192140
3.660000	39.192140
3.670000	39.192140
3.680000	39.192140
3.690000	39.192140
3.700000	39.192140
3.710000	39.192140
3.720000	39.192140
3.730000	39.192140
3.740000	39.192140
3.750000	39.192140
3.760000	39.192140
3.770000	39.192140
3.780000	39.192140
3.790000	39.192140
3.800000	39.192140
3.810000	39.192140
3.820000	39.192140
3.830000	39.192140
3.840000	39.192140
3.850000	39.192140
3.860000	39.192140
3.870000	39.192140
3.880000	39.192140
3.890000	39.192140
3.900000	39.192140
3.910000	39.192140
3.920000	39.192140
3.930000	39.192140
3.940000	39.192140
3.950000	39.192140
3.960000	39.192140
3.970000	39.192140
3.980000	39.192140
3.990000	39.192140
4.000000	41.969114
4.010000	41.969114
4.020000	41.969114
4.030000	41.969114
4.040000	41.969114
4.050000	41.969114
4.060000	41.969114
4.070000	41.969114
4.080000	41.969114
4.090000	41.969114
4.100000	41.969114
4.110000	41.969114
4.120000	41.969114
4.130000	41.969114
4.140000	41.969114
4.150000	41.969114
4.160000	41.969114
4.170000	41.969114
4.180000	41.969114
4.190000	41.969114
4.200000	41.969114
4.210000	41.969114
4.220000	41.969114
4.230000	41.969114
4.240000	41.969114
4.250000	41.969114
4.260000	41.969114
4.270000	41.969114
4.280000	41.969114
4.290000	41.969114
4.300000	41.969114
4.310000	41.969114
4.320000	41.969114
4.330000	41.969114
4.340000	41.969114
4.350000	41.969114
4.360000	41.969114
4.370000	41.969114
4.380000	41.969114
4.390000	41.969114
4.400000	41.969114
4.410000	41.969114
4.420000	41.969114
4.430000	41.969114
4.440000	41.969114
4.450000	41.969114
4.460000	41.969114
4.470000	41.969114
4.480000	41.969114
4.490000	41.969114
4.500000	44.034687
4.510000	44.034687
4.520000	44.034687
4.530000	44.034687
4.540000	44.034687
4.550000	44.034687
4.560000	44.034687
4.570000	44.034687
4.580000	44.034687
4.590000	44.034687
4.600000	44.034687
4.610000	44.034687
4.620000	44.034687
4.630000	44.034687
4.640000	44.034687
4.650000	44.034687
4.660000	44.034687
4.670000	44.034687
4.680000	44.034687
4.690000	44.034687
4.700000	44.034687
4.710000	44.034687
4.720000	44.034687
4.730000	44.034687
4.740000	44.034687
4.750000	44.034687
4.760000	44.034687
4.770000	44.034687
4.780000	44.034687
4.790000	44.034687
4.800000	44.034687
4.810000	44.034687
4.820000	44.034687
4.830000	44.034687
4.840000	44.034687
4.850000	44.034687
4.860000	44.034687
4.870000	44.034687
4.880000	44.034687
4.890000	44.034687
4.900000	44.034687
4.910000	44.034687
4.920000	44.034687
4.930000	44.034687
4.940000	44.034687
4.950000	44.034687
4.960000	44.034687
4.970000	44.034687
4.980000	44.034687
4.990000	44.034687
5.000000	45.527760
5.010000	45.527760
5.020000	45.527760
5.030000	45.527760
5.040000	45.527760
5.050000	45.527760
5.060000	45.527760
5.070000	45.527760
5.080000	45.527760
5.090000	45.527760
5.100000	45.527760
5.110000	45.527760
5.120000	45.527760
5.130000	45.527760
5.140000	45.527760
5.150000	45.527760
5.160000	45.527760
5.170000	45.527760
5.180000	45.527760
5.190000	45.527760
5.200000	45.527760
5.210000	45.527760
5.220000	45.527760
5.230000	45.527760
5.240000	45.527760
5.250000	45.527760
5.260000	45.527760
5.270000	45.527760
5.280000	45.527760
5.290000	45.527760
5.300000	45.527760
5.310000	45.527760
5.320000	45.527760
5.330000	45.527760
5.340000	45.527760
5.350000	45.527760
5.360000	45.527760
5.370000	45.527760
5.380000	45.527760
5.390000	45.527760
5.400000	45.527760
5.410000	45.527760
5.420000	45.527760
5.430000	45.527760
5.440000	45.527760
5.450000	45.527760
5.460000	45.527760
5.470000	45.527760
5.480000	45.527760
5.490000	45.527760
5.500000	46.567594
5.510000	46.567594
5.520000	46.567594
5.530000	46.567594
5.540000	46.567594
5.550000	46.567594
5.560000	46.567594
5.570000	46.567594
5.580000	46.567594
5.590000	46.567594
5.600000	46.567594
5.610000	46.567594
5.620000	46.567594
5.630000	46.567594
5.640000	46.567594
5.650000	46.567594
5.660000	46.567594
5.670000	46.567594
5.680000	46.567594
5.690000	46.567594
5.700000	46.567594
5.710000	46.567594
5.720000	46.567594
5.730000	46.567594
5.740000	46.567594
5.750000	46.567594
5.760000	46.567594
5.770000	46.567594
5.780000	46.567594
5.790000	46.567594
5.800000	46.567594
5.810000	46.567594
5.820000	46.567594
5.830000	46.567594
5.840000	46.567594
5.850000	46.567594
5.860000	46.567594
5.870000	46.567594
5.880000	46.567594
5.890000	46.567594
5.900000	46.567594
5.910000	46.567594
5.920000	46.567594
5.930000	46.567594
5.940000	46.567594
5.950000	46.567594
5.960000	46.567594
5.970000	46.567594
5.980000	46.567594
5.990000	46.567594
6.000000	47.259532
6.010000	47.259532
6.020000	47.259532
6.030000	47.259532
6.040000	47.259532
6.050000	47.259532
6.060000	47.259532
6.070000	47.259532
6.080000	47.259532
6.090000	47.259532
6.100000	47.259532
6.110000	47.259532
6.120000	47.259532
6.130000	47.259532
6.140000	47.259532
6.150000	47.259532
6.160000	47.259532
6.170000	47.259532
6.180000	47.259532
6.190000	47.259532
6.200000	47.259532
6.210000	47.259532
6.220000	47.259532
6.230000	47.259532
6.240000	47.259532
6.250000	47.259532
6.260000	47.259532
6.270000	47.259532
6.280000	47.259532
6.290000	47.259532
6.300000	47.259532
6.310000	47.259532
6.320000	47.259532
6.330000	47.259532
6.340000	47.259532
6.350000	47.259532
6.360000	47.259532
6.370000	47.259532
6.380000	47.259532
6.390000	47.259532
6.400000	47.259532
6.410000	47.259532
6.420000	47.259532
6.430000	47.259532
6.440000	47.259532
6.450000	47.259532
6.460000	47.259532
6.470000	47.259532
6.480000	47.259532
6.490000	47.259532
6.500000	47.676441
6.510000	47.676441
6.520000	47.676441
6.530000	47.676441
6.540000	47.676441
6.550000	47.676441
6.560000	47.676441
6.570000	47.676441
6.580000	47.676441
6.590000	47.676441
6.600000	47.676441
6.610000	47.676441
6.620000	47.676441
6.630000	47.676441
6.640000	47.676441
6.650000	47.676441
6.660000	47.676441
6.670000	47.676441
6.680000	47.676441
6.690000	47.676441
6.700000	47.676441
6.710000	47.676441
6.720000	47.676441
6.730000	47.676441
6.740000	47.676441
6.750000	47.676441
6.760000	47.676441
6.770000	47.676441
6.780000	47.676441
6.790000	47.676441
6.800000	47.676441
6.810000	47.676441
6.820000	47.676441
6.830000	47.676441
6.840000	47.676441
6.850000	47.676441
6.860000	47.676441
6.870000	47.676441
6.880000	47.676441
6.890000	47.676441
6.900000	47.676441
6.910000	47.676441
6.920000	47.676441
6.930000	47.676441
6.940000	47.676441
6.950000	47.676441
6.960000	47.676441
6.970000	47.676441
6.980000	47.676441
6.990000	47.676441
7.000000	47.887100
7.010000	47.887100
7.020000	47.887100
7.030000	47.887100
7.040000	47.887100
7.050000	47.887100
7.060000	47.887100
7.070000	47.887100
7.080000	47.887100
7.090000	47.887100
7.100000	47.887100
7.110000	47.887100
7.120000	47.887100
7.130000	47.887100
7.140000	47.887100
7.150000	47.887100
7.160000	47.887100
7.170000	47.887100
7.180000	47.887100
7.190000	47.887100
7.200000	47.887100
7.210000	47.887100
7.220000	47.887100
7.230000	47.887100
7.240000	47.887100
7.250000	47.887100
7.260000	47.887100
7.270000	47.887100
7.280000	47.887100
7.290000	47.887100
7.300000	47.887100
7.310000	47.887100
7.320000	47.887100
7.330000	47.887100
7.340000	47.887100
7.350000	47.887100
7.360000	47.887100
7.370000	47.887100
7.380000	47.887100
7.390000	47.887100
7.400000	47.887100
7.410000	47.887100
7.420000	47.887100
7.430000	47.887100
7.440000	47.887100
7.450000	47.887100
7.460000	47.887100
7.470000	47.887100
7.480000	47.887100
7.490000	47.887100
7.500000	47.934601
7.510000	47.934601
7.520000	47.934601
7.530000	47.934601
7.540000	47.934601
7.550000	47.934601
7.560000	47.934601
7.570000	47.934601
7.580000	47.934601
7.590000	47.934601
7.600000	47.934601
7.610000	47.934601
7.620000	47.934601
7.630000	47.934601
7.640000	47.934601
7.650000	47.934601
7.660000	47.934601
7.670000	47.934601
7.680000	47.934601
7.690000	47.934601
7.700000	47.934601
7.710000	47.934601
7.720000	47.934601
7.730000	47.934601
7.740000	47.934601
7.750000	47.934601
7.760000	47.934601
7.770000	47.934601
7.780000	47.934601
7.790000	47.934601
7.800000	47.934601
7.810000	47.934601
7.820000	47.934601
7.830000	47.934601
7.840000	47.934601
7.850000	47.934601
7.860000	47.934601
7.870000	47.934601
7.880000	47.934601
7.890000	47.934601
7.900000	47.934601
7.910000	47.934601
7.920000	47.934601
7.930000	47.934601
7.940000	47.934601
7.950000	47.934601
7.960000	47.934601
7.970000	47.934601
7.980000	47.934601
7.990000	47.934601
8.000000	47.851872
8.010000	47.851872
8.020000	47.851872
8.030000	47.851872
8.040000	47.851872
8.050000	47.851872
8.060000	47.851872
8.070000	47.851872
8.080000	47.851872
8.090000	47.851872
8.100000	47.851872
8.110000	47.851872
8.120000	47.851872
8.130000	47.851872
8.140000	47.851872
8.150000	47.851872
8.160000	47.851872
8.170000	47.851872
8.180000	47.851872
8.190000	47.851872
8.200000	47.851872
8.210000	47.851872
8.220000	47.851872
8.230000	47.851872
8.240000	47.851872
8.250000	47.851872
8.260000	47.851872
8.270000	47.851872
8.280000	47.851872
8.290000	47.851872
8.300000	47.851872
8.310000	47.851872
8.320000	47.851872
8.330000	47.851872
8.340000	47.851872
8.350000	47.851872
8.360000	47.851872
8.370000	47.851872
8.380000	47.851872
8.390000	47.851872
8.400000	47.851872
8.410000	47.851872
8.420000	47.851872
8.430000	47.851872
8.440000	47.851872
8.450000	47.851872
8.460000	47.851872
8.470000	47.851872
8.480000	47.851872
8.490000	47.851872
8.500000	47.676592
8.510000	47.676592
8.520000	47.676592
8.530000	47.676592
8.540000	47.676592
8.550000	47.676592
8.560000	47.676592
8.570000	47.676592
8.580000	47.676592
8.590000	47.676592
8.600000	47.676592
8.610000	47.676592
8.620000	47.676592
8.630000	47.676592
8.640000	47.676592
8.650000	47.676592
8.660000	47.676592
8.670000	47.676592
8.680000	47.676592
8.690000	47.676592
8.700000	47.676592
8.710000	47.676592
8.720000	47.676592
8.730000	47.676592
8.740000	47.676592
8.750000	47.676592
8.760000	47.676592
8.770000	47.676592
8.780000	47.676592
8.790000	47.676592
8.800000	47.676592
8.810000	47.676592
8.820000	47.676592
8.830000	47.676592
8.840000	47.676592
8.850000	47.676592
8.860000	47.676592
8.870000	47.676592
8.880000	47.676592
8.890000	47.676592
8.900000	47.676592
8.910000	47.676592
8.920000	47.676592
8.930000	47.676592
8.940000	47.676592
8.950000	47.676592
8.960000	47.676592
8.970000	47.676592
8.980000	47.676592
8.990000	47.676592
9.000000	47.431894
9.010000	47.431894
9.020000	47.431894
9.030000	47.431894
9.040000	47.431894
9.050000	47.431894
9.060000	47.431894
9.070000	47.431894
9.080000	47.431894
9.090000	47.431894
9.100000	47.431894
9.110000	47.431894
9.120000	47.431894
9.130000	47.431894
9.140000	47.431894
9.150000	47.431894
9.160000	47.431894
9.170000	47.431894
9.180000	47.431894
9.190000	47.431894
9.200000	47.431894
9.210000	47.431894
9.220000	47.431894
9.230000	47.431894
9.240000	47.431894
9.250000	47.431894
9.260000	47.431894
9.270000	47.431894
9.280000	47.431894
9.290000	47.431894
9.300000	47.431894
9.310000	47.431894
9.320000	47.431894
9.330000	47.431894
9.340000	47.431894
9.350000	47.431894
9.360000	47.431894
9.370000	47.431894
9.380000	47.431894
9.390000	47.431894
9.400000	47.431894
9.410000	47.431894
9.420000	47.431894
9.430000	47.431894
9.440000	47.431894
9.450000	47.431894
9.460000	47.431894
9.470000	47.431894
9.480000	47.431894
9.490000	47.431894
9.500000	47.137047
9.510000	47.137047
9.520000	47.137047
9.530000	47.137047
9.540000	47.137047
9.550000	47.137047
9.560000	47.137047
9.570000	47.137047
9.580000	47.137047
9.590000	47.137047
9.600000	47.137047
9.610000	47.137047
9.620000	47.137047
9.630000	47.137047
9.640000	47.137047
9.650000	47.137047
9.660000	47.137047
9.670000	47.137047
9.680000	47.137047
9.690000	47.137047
9.700000	47.137047
9.710000	47.137047
9.720000	47.137047
9.730000	47.137047
9.740000	47.137047
9.750000	47.137047
9.760000	47.137047
