LabVIEW Measurement	
Writer_Version	2
Reader_Version	2
Separator	Tab
Decimal_Separator	.
Multi_Headings	No
X_Columns	One
Time_Pref	Absolute
Operator	biomech-dyno
Date	2023/05/24
Time	16:31:59.7770512999995510441
***End_of_Header***	
	
Channels	1	
Samples	10	
Date	2023/05/24	
Time	16:40:12.1532021999998740694	
X_Dimension	Time	
X0	0.0000000000000000E+0	
Delta_X	0.010000	
***End_of_Header***		
X_Value	Untitled	Comment
0.000000	25.052816
0.010000	25.052816
0.020000	25.052816
0.030000	25.052816
0.040000	25.052816
0.050000	25.052816
0.060000	25.052816
0.070000	25.052816
0.080000	25.052816
0.090000	25.052816
0.100000	25.052816
0.110000	25.052816
0.120000	25.052816
0.130000	25.052816
0.140000	25.052816
0.150000	25.052816
0.160000	25.052816
0.170000	25.052816
0.180000	25.052816
0.190000	25.052816
0.200000	25.052816
0.210000	25.052816
0.220000	25.052816
0.230000	25.052816
0.240000	25.052816
0.250000	25.052816
0.260000	25.052816
0.270000	25.052816
0.280000	25.052816
0.290000	25.052816
0.300000	25.052816
0.310000	25.052816
0.320000	25.052816
0.330000	25.052816
0.340000	25.052816
0.350000	25.052816
0.360000	25.052816
0.370000	25.052816
0.380000	25.052816
0.390000	25.052816
0.400000	25.052816
0.410000	25.052816
0.420000	25.052816
0.430000	25.052816
0.440000	25.052816
0.450000	25.052816
0.460000	25.052816
0.470000	25.052816
0.480000	25.052816
0.490000	25.052816
0.500000	25.102054
0.510000	25.102054
0.520000	25.102054
0.530000	25.102054
0.540000	25.102054
0.550000	25.102054
0.560000	25.102054
0.570000	25.102054
0.580000	25.102054
0.590000	25.102054
0.600000	25.102054
0.610000	25.102054
0.620000	25.102054
0.630000	25.102054
0.640000	25.102054
0.650000	25.102054
0.660000	25.102054
0.670000	25.102054
0.680000	25.102054
0.690000	25.102054
0.700000	25.102054
0.710000	25.102054
0.720000	25.102054
0.730000	25.102054
0.740000	25.102054
0.750000	25.102054
0.760000	25.102054
0.770000	25.102054
0.780000	25.102054
0.790000	25.102054
0.800000	25.102054
0.810000	25.102054
0.820000	25.102054
0.830000	25.102054
0.840000	25.102054
0.850000	25.102054
0.860000	25.102054
0.870000	25.102054
0.880000	25.102054
0.890000	25.102054
0.900000	25.102054
0.910000	25.102054
0.920000	25.102054
0.930000	25.102054
0.940000	25.102054
0.950000	25.102054
0.960000	25.102054
0.970000	25.102054
0.980000	25.102054
0.990000	25.102054
1.000000	25.618608
1.010000	25.618608
1.020000	25.618608
1.030000	25.618608
1.040000	25.618608
1.050000	25.618608
1.060000	25.618608
1.070000	25.618608
1.080000	25.618608
1.090000	25.618608
1.100000	25.618608
1.110000	25.618608
1.120000	25.618608
1.130000	25.618608
1.140000	25.618608
1.150000	25.618608
1.160000	25.618608
1.170000	25.618608
1.180000	25.618608
1.190000	25.618608
1.200000	25.618608
1.210000	25.618608
1.220000	25.618608
1.230000	25.618608
1.240000	25.618608
1.250000	25.618608
1.260000	25.618608
1.270000	25.618608
1.280000	25.618608
1.290000	25.618608
1.300000	25.618608
1.310000	25.618608
1.320000	25.618608
1.330000	25.618608
1.340000	25.618608
1.350000	25.618608
1.360000	25.618608
1.370000	25.618608
1.380000	25.618608
1.390000	25.618608
1.400000	25.618608
1.410000	25.618608
1.420000	25.618608
1.430000	25.618608
1.440000	25.618608
1.450000	25.618608
1.460000	25.618608
1.470000	25.618608
1.480000	25.618608
1.490000	25.618608
1.500000	26.831993
1.510000	26.831993
1.520000	26.831993
1.530000	26.831993
1.540000	26.831993
1.550000	26.831993
1.560000	26.831993
1.570000	26.831993
1.580000	26.831993
1.590000	26.831993
1.600000	26.831993
1.610000	26.831993
1.620000	26.831993
1.630000	26.831993
1.640000	26.831993
1.650000	26.831993
1.660000	26.831993
1.670000	26.831993
1.680000	26.831993
1.690000	26.831993
1.700000	26.831993
1.710000	26.831993
1.720000	26.831993
1.730000	26.831993
1.740000	26.831993
1.750000	26.831993
1.760000	26.831993
1.770000	26.831993
1.780000	26.831993
1.790000	26.831993
1.800000	26.831993
1.810000	26.831993
1.820000	26.831993
1.830000	26.831993
1.840000	26.831993
1.850000	26.831993
1.860000	26.831993
1.870000	26.831993
1.880000	26.831993
1.890000	26.831993
1.900000	26.831993
1.910000	26.831993
1.920000	26.831993
1.930000	26.831993
1.940000	26.831993
1.950000	26.831993
1.960000	26.831993
1.970000	26.831993
1.980000	26.831993
1.990000	26.831993
2.000000	28.617332
2.010000	28.617332
2.020000	28.617332
2.030000	28.617332
2.040000	28.617332
2.050000	28.617332
2.060000	28.617332
2.070000	28.617332
2.080000	28.617332
2.090000	28.617332
2.100000	28.617332
2.110000	28.617332
2.120000	28.617332
2.130000	28.617332
2.140000	28.617332
2.150000	28.617332
2.160000	28.617332
2.170000	28.617332
2.180000	28.617332
2.190000	28.617332
2.200000	28.617332
2.210000	28.617332
2.220000	28.617332
2.230000	28.617332
2.240000	28.617332
2.250000	28.617332
2.260000	28.617332
2.270000	28.617332
2.280000	28.617332
2.290000	28.617332
2.300000	28.617332
2.310000	28.617332
2.320000	28.617332
2.330000	28.617332
2.340000	28.617332
2.350000	28.617332
2.360000	28.617332
2.370000	28.617332
2.380000	28.617332
2.390000	28.617332
2.400000	28.617332
2.410000	28.617332
2.420000	28.617332
2.430000	28.617332
2.440000	28.617332
2.450000	28.617332
2.460000	28.617332
2.470000	28.617332
2.480000	28.617332
2.490000	28.617332
2.500000	30.852024
2.510000	30.852024
2.520000	30.852024
2.530000	30.852024
2.540000	30.852024
2.550000	30.852024
2.560000	30.852024
2.570000	30.852024
2.580000	30.852024
2.590000	30.852024
2.600000	30.852024
2.610000	30.852024
2.620000	30.852024
2.630000	30.852024
2.640000	30.852024
2.650000	30.852024
2.660000	30.852024
2.670000	30.852024
2.680000	30.852024
2.690000	30.852024
2.700000	30.852024
2.710000	30.852024
2.720000	30.852024
2.730000	30.852024
2.740000	30.852024
2.750000	30.852024
2.760000	30.852024
2.770000	30.852024
2.780000	30.852024
2.790000	30.852024
2.800000	30.852024
2.810000	30.852024
2.820000	30.852024
2.830000	30.852024
2.840000	30.852024
2.850000	30.852024
2.860000	30.852024
2.870000	30.852024
2.880000	30.852024
2.890000	30.852024
2.900000	30.852024
2.910000	30.852024
2.920000	30.852024
2.930000	30.852024
2.940000	30.852024
2.950000	30.852024
2.960000	30.852024
2.970000	30.852024
2.980000	30.852024
2.990000	30.852024
3.000000	33.424304
3.010000	33.424304
3.020000	33.424304
3.030000	33.424304
3.040000	33.424304
3.050000	33.424304
3.060000	33.424304
3.070000	33.424304
3.080000	33.424304
3.090000	33.424304
3.100000	33.424304
3.110000	33.424304
3.120000	33.424304
3.130000	33.424304
3.140000	33.424304
3.150000	33.424304
3.160000	33.424304
3.170000	33.424304
3.180000	33.424304
3.190000	33.424304
3.200000	33.424304
3.210000	33.424304
3.220000	33.424304
3.230000	33.424304
3.240000	33.424304
3.250000	33.424304
3.260000	33.424304
3.270000	33.424304
3.280000	33.424304
3.290000	33.424304
3.300000	33.424304
3.310000	33.424304
3.320000	33.424304
3.330000	33.424304
3.340000	33.424304
3.350000	33.424304
3.360000	33.424304
3.370000	33.424304
3.380000	33.424304
3.390000	33.424304
3.400000	33.424304
3.410000	33.424304
3.420000	33.424304
3.430000	33.424304
3.440000	33.424304
3.450000	33.424304
3.460000	33.424304
3.470000	33.424304
3.480000	33.424304
3.490000	33.424304
3.500000	36.100149
3.510000	36.100149
3.520000	36.100149
3.530000	36.100149
3.540000	36.100149
3.550000	36.100149
3.560000	36.100149
3.570000	36.100149
3.580000	36.100149
3.590000	36.100149
3.600000	36.100149
3.610000	36.100149
3.620000	36.100149
3.630000	36.100149
3.640000	36.100149
3.650000	36.100149
3.660000	36.100149
3.670000	36.100149
3.680000	36.100149
3.690000	36.100149
3.700000	36.100149
3.710000	36.100149
3.720000	36.100149
3.730000	36.100149
3.740000	36.100149
3.750000	36.100149
3.760000	36.100149
3.770000	36.100149
3.780000	36.100149
3.790000	36.100149
3.800000	36.100149
3.810000	36.100149
3.820000	36.100149
3.830000	36.100149
3.840000	36.100149
3.850000	36.100149
3.860000	36.100149
3.870000	36.100149
3.880000	36.100149
3.890000	36.100149
3.900000	36.100149
3.910000	36.100149
3.920000	36.100149
3.930000	36.100149
3.940000	36.100149
3.950000	36.100149
3.960000	36.100149
3.970000	36.100149
3.980000	36.100149
3.990000	36.100149
4.000000	38.289703
4.010000	38.289703
4.020000	38.289703
4.030000	38.289703
4.040000	38.289703
4.050000	38.289703
4.060000	38.289703
4.070000	38.289703
4.080000	38.289703
4.090000	38.289703
4.100000	38.289703
4.110000	38.289703
4.120000	38.289703
4.130000	38.289703
4.140000	38.289703
4.150000	38.289703
4.160000	38.289703
4.170000	38.289703
4.180000	38.289703
4.190000	38.289703
4.200000	38.289703
4.210000	38.289703
4.220000	38.289703
4.230000	38.289703
4.240000	38.289703
4.250000	38.289703
4.260000	38.289703
4.270000	38.289703
4.280000	38.289703
4.290000	38.289703
4.300000	38.289703
4.310000	38.289703
4.320000	38.289703
4.330000	38.289703
4.340000	38.289703
4.350000	38.289703
4.360000	38.289703
4.370000	38.289703
4.380000	38.289703
4.390000	38.289703
4.400000	38.289703
4.410000	38.289703
4.420000	38.289703
4.430000	38.289703
4.440000	38.289703
4.450000	38.289703
4.460000	38.289703
4.470000	38.289703
4.480000	38.289703
4.490000	38.289703
4.500000	39.924738
4.510000	39.924738
4.520000	39.924738
4.530000	39.924738
4.540000	39.924738
4.550000	39.924738
4.560000	39.924738
4.570000	39.924738
4.580000	39.924738
4.590000	39.924738
4.600000	39.924738
4.610000	39.924738
4.620000	39.924738
4.630000	39.924738
4.640000	39.924738
4.650000	39.924738
4.660000	39.924738
4.670000	39.924738
4.680000	39.924738
4.690000	39.924738
4.700000	39.924738
4.710000	39.924738
4.720000	39.924738
4.730000	39.924738
4.740000	39.924738
4.750000	39.924738
4.760000	39.924738
4.770000	39.924738
4.780000	39.924738
4.790000	39.924738
4.800000	39.924738
4.810000	39.924738
4.820000	39.924738
4.830000	39.924738
4.840000	39.924738
4.850000	39.924738
4.860000	39.924738
4.870000	39.924738
4.880000	39.924738
4.890000	39.924738
4.900000	39.924738
4.910000	39.924738
4.920000	39.924738
4.930000	39.924738
4.940000	39.924738
4.950000	39.924738
4.960000	39.924738
4.970000	39.924738
4.980000	39.924738
4.990000	39.924738
5.000000	41.086376
5.010000	41.086376
5.020000	41.086376
5.030000	41.086376
5.040000	41.086376
5.050000	41.086376
5.060000	41.086376
5.070000	41.086376
5.080000	41.086376
5.090000	41.086376
5.100000	41.086376
5.110000	41.086376
5.120000	41.086376
5.130000	41.086376
5.140000	41.086376
5.150000	41.086376
5.160000	41.086376
5.170000	41.086376
5.180000	41.086376
5.190000	41.086376
5.200000	41.086376
5.210000	41.086376
5.220000	41.086376
5.230000	41.086376
5.240000	41.086376
5.250000	41.086376
5.260000	41.086376
5.270000	41.086376
5.280000	41.086376
5.290000	41.086376
5.300000	41.086376
5.310000	41.086376
5.320000	41.086376
5.330000	41.086376
5.340000	41.086376
5.350000	41.086376
5.360000	41.086376
5.370000	41.086376
5.380000	41.086376
5.390000	41.086376
5.400000	41.086376
5.410000	41.086376
5.420000	41.086376
5.430000	41.086376
5.440000	41.086376
5.450000	41.086376
5.460000	41.086376
5.470000	41.086376
5.480000	41.086376
5.490000	41.086376
5.500000	41.880829
5.510000	41.880829
5.520000	41.880829
5.530000	41.880829
5.540000	41.880829
5.550000	41.880829
5.560000	41.880829
5.570000	41.880829
5.580000	41.880829
5.590000	41.880829
5.600000	41.880829
5.610000	41.880829
5.620000	41.880829
5.630000	41.880829
5.640000	41.880829
5.650000	41.880829
5.660000	41.880829
5.670000	41.880829
5.680000	41.880829
5.690000	41.880829
5.700000	41.880829
5.710000	41.880829
5.720000	41.880829
5.730000	41.880829
5.740000	41.880829
5.750000	41.880829
5.760000	41.880829
5.770000	41.880829
5.780000	41.880829
5.790000	41.880829
5.800000	41.880829
5.810000	41.880829
5.820000	41.880829
5.830000	41.880829
5.840000	41.880829
5.850000	41.880829
5.860000	41.880829
5.870000	41.880829
5.880000	41.880829
5.890000	41.880829
5.900000	41.880829
5.910000	41.880829
5.920000	41.880829
5.930000	41.880829
5.940000	41.880829
5.950000	41.880829
5.960000	41.880829
5.970000	41.880829
5.980000	41.880829
5.990000	41.880829
6.000000	42.394493
6.010000	42.394493
6.020000	42.394493
6.030000	42.394493
6.040000	42.394493
6.050000	42.394493
6.060000	42.394493
6.070000	42.394493
6.080000	42.394493
6.090000	42.394493
6.100000	42.394493
6.110000	42.394493
6.120000	42.394493
6.130000	42.394493
6.140000	42.394493
6.150000	42.394493
6.160000	42.394493
6.170000	42.394493
6.180000	42.394493
6.190000	42.394493
6.200000	42.394493
6.210000	42.394493
6.220000	42.394493
6.230000	42.394493
6.240000	42.394493
6.250000	42.394493
6.260000	42.394493
6.270000	42.394493
6.280000	42.394493
6.290000	42.394493
6.300000	42.394493
6.310000	42.394493
6.320000	42.394493
6.330000	42.394493
6.340000	42.394493
6.350000	42.394493
6.360000	42.394493
6.370000	42.394493
6.380000	42.394493
6.390000	42.394493
6.400000	42.394493
6.410000	42.394493
6.420000	42.394493
6.430000	42.394493
6.440000	42.394493
6.450000	42.394493
6.460000	42.394493
6.470000	42.394493
6.480000	42.394493
6.490000	42.394493
6.500000	42.699479
6.510000	42.699479
6.520000	42.699479
6.530000	42.699479
6.540000	42.699479
6.550000	42.699479
6.560000	42.699479
6.570000	42.699479
6.580000	42.699479
6.590000	42.699479
6.600000	42.699479
6.610000	42.699479
6.620000	42.699479
6.630000	42.699479
6.640000	42.699479
6.650000	42.699479
6.660000	42.699479
6.670000	42.699479
6.680000	42.699479
6.690000	42.699479
6.700000	42.699479
6.710000	42.699479
6.720000	42.699479
6.730000	42.699479
6.740000	42.699479
6.750000	42.699479
6.760000	42.699479
6.770000	42.699479
6.780000	42.699479
6.790000	42.699479
6.800000	42.699479
6.810000	42.699479
6.820000	42.699479
6.830000	42.699479
6.840000	42.699479
6.850000	42.699479
6.860000	42.699479
6.870000	42.699479
6.880000	42.699479
6.890000	42.699479
6.900000	42.699479
6.910000	42.699479
6.920000	42.699479
6.930000	42.699479
6.940000	42.699479
6.950000	42.699479
6.960000	42.699479
6.970000	42.699479
6.980000	42.699479
6.990000	42.699479
7.000000	42.850458
7.010000	42.850458
7.020000	42.850458
7.030000	42.850458
7.040000	42.850458
7.050000	42.850458
7.060000	42.850458
7.070000	42.850458
7.080000	42.850458
7.090000	42.850458
7.100000	42.850458
7.110000	42.850458
7.120000	42.850458
7.130000	42.850458
7.140000	42.850458
7.150000	42.850458
7.160000	42.850458
7.170000	42.850458
7.180000	42.850458
7.190000	42.850458
7.200000	42.850458
7.210000	42.850458
7.220000	42.850458
7.230000	42.850458
7.240000	42.850458
7.250000	42.850458
7.260000	42.850458
7.270000	42.850458
7.280000	42.850458
7.290000	42.850458
7.300000	42.850458
7.310000	42.850458
7.320000	42.850458
7.330000	42.850458
7.340000	42.850458
7.350000	42.850458
7.360000	42.850458
7.370000	42.850458
7.380000	42.850458
7.390000	42.850458
7.400000	42.850458
7.410000	42.850458
7.420000	42.850458
7.430000	42.850458
7.440000	42.850458
7.450000	42.850458
7.460000	42.850458
7.470000	42.850458
7.480000	42.850458
7.490000	42.850458
7.500000	42.875286
7.510000	42.875286
7.520000	42.875286
7.530000	42.875286
7.540000	42.875286
7.550000	42.875286
7.560000	42.875286
7.570000	42.875286
7.580000	42.875286
7.590000	42.875286
7.600000	42.875286
7.610000	42.875286
7.620000	42.875286
7.630000	42.875286
7.640000	42.875286
7.650000	42.875286
7.660000	42.875286
7.670000	42.875286
7.680000	42.875286
7.690000	42.875286
7.700000	42.875286
7.710000	42.875286
7.720000	42.875286
7.730000	42.875286
7.740000	42.875286
7.750000	42.875286
7.760000	42.875286
7.770000	42.875286
7.780000	42.875286
7.790000	42.875286
7.800000	42.875286
7.810000	42.875286
7.820000	42.875286
7.830000	42.875286
7.840000	42.875286
7.850000	42.875286
7.860000	42.875286
7.870000	42.875286
7.880000	42.875286
7.890000	42.875286
7.900000	42.875286
7.910000	42.875286
7.920000	42.875286
7.930000	42.875286
7.940000	42.875286
7.950000	42.875286
7.960000	42.875286
7.970000	42.875286
7.980000	42.875286
7.990000	42.875286
8.000000	42.807522
8.010000	42.807522
8.020000	42.807522
8.030000	42.807522
8.040000	42.807522
8.050000	42.807522
8.060000	42.807522
8.070000	42.807522
8.080000	42.807522
8.090000	42.807522
8.100000	42.807522
8.110000	42.807522
8.120000	42.807522
8.130000	42.807522
8.140000	42.807522
8.150000	42.807522
8.160000	42.807522
8.170000	42.807522
8.180000	42.807522
8.190000	42.807522
8.200000	42.807522
8.210000	42.807522
8.220000	42.807522
8.230000	42.807522
8.240000	42.807522
8.250000	42.807522
8.260000	42.807522
8.270000	42.807522
8.280000	42.807522
8.290000	42.807522
8.300000	42.807522
8.310000	42.807522
8.320000	42.807522
8.330000	42.807522
8.340000	42.807522
8.350000	42.807522
8.360000	42.807522
8.370000	42.807522
8.380000	42.807522
8.390000	42.807522
8.400000	42.807522
8.410000	42.807522
8.420000	42.807522
8.430000	42.807522
8.440000	42.807522
8.450000	42.807522
8.460000	42.807522
8.470000	42.807522
8.480000	42.807522
8.490000	42.807522
8.500000	42.665720
8.510000	42.665720
8.520000	42.665720
8.530000	42.665720
8.540000	42.665720
8.550000	42.665720
8.560000	42.665720
8.570000	42.665720
8.580000	42.665720
8.590000	42.665720
8.600000	42.665720
8.610000	42.665720
8.620000	42.665720
8.630000	42.665720
8.640000	42.665720
8.650000	42.665720
8.660000	42.665720
8.670000	42.665720
8.680000	42.665720
8.690000	42.665720
8.700000	42.665720
8.710000	42.665720
8.720000	42.665720
8.730000	42.665720
8.740000	42.665720
8.750000	42.665720
8.760000	42.665720
8.770000	42.665720
8.780000	42.665720
8.790000	42.665720
8.800000	42.665720
8.810000	42.665720
8.820000	42.665720
8.830000	42.665720
8.840000	42.665720
8.850000	42.665720
8.860000	42.665720
8.870000	42.665720
8.880000	42.665720
8.890000	42.665720
8.900000	42.665720
8.910000	42.665720
8.920000	42.665720
8.930000	42.665720
8.940000	42.665720
8.950000	42.665720
8.960000	42.665720
8.970000	42.665720
8.980000	42.665720
8.990000	42.665720
9.000000	42.467572
9.010000	42.467572
9.020000	42.467572
9.030000	42.467572
9.040000	42.467572
9.050000	42.467572
9.060000	42.467572
9.070000	42.467572
9.080000	42.467572
9.090000	42.467572
9.100000	42.467572
9.110000	42.467572
9.120000	42.467572
9.130000	42.467572
9.140000	42.467572
9.150000	42.467572
9.160000	42.467572
9.170000	42.467572
9.180000	42.467572
9.190000	42.467572
9.200000	42.467572
9.210000	42.467572
9.220000	42.467572
9.230000	42.467572
9.240000	42.467572
9.250000	42.467572
9.260000	42.467572
9.270000	42.467572
9.280000	42.467572
9.290000	42.467572
9.300000	42.467572
9.310000	42.467572
9.320000	42.467572
9.330000	42.467572
9.340000	42.467572
9.350000	42.467572
9.360000	42.467572
9.370000	42.467572
9.380000	42.467572
9.390000	42.467572
9.400000	42.467572
9.410000	42.467572
9.420000	42.467572
9.430000	42.467572
9.440000	42.467572
9.450000	42.467572
9.460000	42.467572
9.470000	42.467572
9.480000	42.467572
9.490000	42.467572
9.500000	42.230667
9.510000	42.230667
9.520000	42.230667
9.530000	42.230667
9.540000	42.230667
9.550000	42.230667
9.560000	42.230667
9.570000	42.230667
9.580000	42.230667
9.590000	42.230667
9.600000	42.230667
9.610000	42.230667
9.620000	42.230667
9.630000	42.230667
9.640000	42.230667
9.650000	42.230667
9.660000	42.230667
9.670000	42.230667
9.680000	42.230667
9.690000	42.230667
9.700000	42.230667
9.710000	42.230667
9.720000	42.230667
9.730000	42.230667
9.740000	42.230667
9.750000	42.230667
9.760000	42.230667
