LabVIEW Measurement	
Writer_Version	2
Reader_Version	2
Separator	Tab
Decimal_Separator	.
Multi_Headings	No
X_Columns	One
Time_Pref	Absolute
Operator	biomech-dyno
Date	2023/05/24
Time	16:48:16.3068024999997945361
***End_of_Header***	
	
Channels	1	
Samples	10	
Date	2023/05/24	
Time	17:09:32.6984191999995917593	
X_Dimension	Time	
X0	0.0000000000000000E+0	
Delta_X	0.010000	
***End_of_Header***		
X_Value	Untitled	Comment
0.000000	25.085230
0.010000	25.085230
0.020000	25.085230
0.030000	25.085230
0.040000	25.085230
0.050000	25.085230
0.060000	25.085230
0.070000	25.085230
0.080000	25.085230
0.090000	25.085230
0.100000	25.085230
0.110000	25.085230
0.120000	25.085230
0.130000	25.085230
0.140000	25.085230
0.150000	25.085230
0.160000	25.085230
0.170000	25.085230
0.180000	25.085230
0.190000	25.085230
0.200000	25.085230
0.210000	25.085230
0.220000	25.085230
0.230000	25.085230
0.240000	25.085230
0.250000	25.085230
0.260000	25.085230
0.270000	25.085230
0.280000	25.085230
0.290000	25.085230
0.300000	25.085230
0.310000	25.085230
0.320000	25.085230
0.330000	25.085230
0.340000	25.085230
0.350000	25.085230
0.360000	25.085230
0.370000	25.085230
0.380000	25.085230
0.390000	25.085230
0.400000	25.085230
0.410000	25.085230
0.420000	25.085230
0.430000	25.085230
0.440000	25.085230
0.450000	25.085230
0.460000	25.085230
0.470000	25.085230
0.480000	25.085230
0.490000	25.085230
0.500000	25.139528
0.510000	25.139528
0.520000	25.139528
0.530000	25.139528
0.540000	25.139528
0.550000	25.139528
0.560000	25.139528
0.570000	25.139528
0.580000	25.139528
0.590000	25.139528
0.600000	25.139528
0.610000	25.139528
0.620000	25.139528
0.630000	25.139528
0.640000	25.139528
0.650000	25.139528
0.660000	25.139528
0.670000	25.139528
0.680000	25.139528
0.690000	25.139528
0.700000	25.139528
0.710000	25.139528
0.720000	25.139528
0.730000	25.139528
0.740000	25.139528
0.750000	25.139528
0.760000	25.139528
0.770000	25.139528
0.780000	25.139528
0.790000	25.139528
0.800000	25.139528
0.810000	25.139528
0.820000	25.139528
0.830000	25.139528
0.840000	25.139528
0.850000	25.139528
0.860000	25.139528
0.870000	25.139528
0.880000	25.139528
0.890000	25.139528
0.900000	25.139528
0.910000	25.139528
0.920000	25.139528
0.930000	25.139528
0.940000	25.139528
0.950000	25.139528
0.960000	25.139528
0.970000	25.139528
0.980000	25.139528
0.990000	25.139528
1.000000	25.672809
1.010000	25.672809
1.020000	25.672809
1.030000	25.672809
1.040000	25.672809
1.050000	25.672809
1.060000	25.672809
1.070000	25.672809
1.080000	25.672809
1.090000	25.672809
1.100000	25.672809
1.110000	25.672809
1.120000	25.672809
1.130000	25.672809
1.140000	25.672809
1.150000	25.672809
1.160000	25.672809
1.170000	25.672809
1.180000	25.672809
1.190000	25.672809
1.200000	25.672809
1.210000	25.672809
1.220000	25.672809
1.230000	25.672809
1.240000	25.672809
1.250000	25.672809
1.260000	25.672809
1.270000	25.672809
1.280000	25.672809
1.290000	25.672809
1.300000	25.672809
1.310000	25.672809
1.320000	25.672809
1.330000	25.672809
1.340000	25.672809
1.350000	25.672809
1.360000	25.672809
1.370000	25.672809
1.380000	25.672809
1.390000	25.672809
1.400000	25.672809
1.410000	25.672809
1.420000	25.672809
1.430000	25.672809
1.440000	25.672809
1.450000	25.672809
1.460000	25.672809
1.470000	25.672809
1.480000	25.672809
1.490000	25.672809
1.500000	26.930514
1.510000	26.930514
1.520000	26.930514
1.530000	26.930514
1.540000	26.930514
1.550000	26.930514
1.560000	26.930514
1.570000	26.930514
1.580000	26.930514
1.590000	26.930514
1.600000	26.930514
1.610000	26.930514
1.620000	26.930514
1.630000	26.930514
1.640000	26.930514
1.650000	26.930514
1.660000	26.930514
1.670000	26.930514
1.680000	26.930514
1.690000	26.930514
1.700000	26.930514
1.710000	26.930514
1.720000	26.930514
1.730000	26.930514
1.740000	26.930514
1.750000	26.930514
1.760000	26.930514
1.770000	26.930514
1.780000	26.930514
1.790000	26.930514
1.800000	26.930514
1.810000	26.930514
1.820000	26.930514
1.830000	26.930514
1.840000	26.930514
1.850000	26.930514
1.860000	26.930514
1.870000	26.930514
1.880000	26.930514
1.890000	26.930514
1.900000	26.930514
1.910000	26.930514
1.920000	26.930514
1.930000	26.930514
1.940000	26.930514
1.950000	26.930514
1.960000	26.930514
1.970000	26.930514
1.980000	26.930514
1.990000	26.930514
2.000000	28.795797
2.010000	28.795797
2.020000	28.795797
2.030000	28.795797
2.040000	28.795797
2.050000	28.795797
2.060000	28.795797
2.070000	28.795797
2.080000	28.795797
2.090000	28.795797
2.100000	28.795797
2.110000	28.795797
2.120000	28.795797
2.130000	28.795797
2.140000	28.795797
2.150000	28.795797
2.160000	28.795797
2.170000	28.795797
2.180000	28.795797
2.190000	28.795797
2.200000	28.795797
2.210000	28.795797
2.220000	28.795797
2.230000	28.795797
2.240000	28.795797
2.250000	28.795797
2.260000	28.795797
2.270000	28.795797
2.280000	28.795797
2.290000	28.795797
2.300000	28.795797
2.310000	28.795797
2.320000	28.795797
2.330000	28.795797
2.340000	28.795797
2.350000	28.795797
2.360000	28.795797
2.370000	28.795797
2.380000	28.795797
2.390000	28.795797
2.400000	28.795797
2.410000	28.795797
2.420000	28.795797
2.430000	28.795797
2.440000	28.795797
2.450000	28.795797
2.460000	28.795797
2.470000	28.795797
2.480000	28.795797
2.490000	28.795797
2.500000	31.102105
2.510000	31.102105
2.520000	31.102105
2.530000	31.102105
2.540000	31.102105
2.550000	31.102105
2.560000	31.102105
2.570000	31.102105
2.580000	31.102105
2.590000	31.102105
2.600000	31.102105
2.610000	31.102105
2.620000	31.102105
2.630000	31.102105
2.640000	31.102105
2.650000	31.102105
2.660000	31.102105
2.670000	31.102105
2.680000	31.102105
2.690000	31.102105
2.700000	31.102105
2.710000	31.102105
2.720000	31.102105
2.730000	31.102105
2.740000	31.102105
2.750000	31.102105
2.760000	31.102105
2.770000	31.102105
2.780000	31.102105
2.790000	31.102105
2.800000	31.102105
2.810000	31.102105
2.820000	31.102105
2.830000	31.102105
2.840000	31.102105
2.850000	31.102105
2.860000	31.102105
2.870000	31.102105
2.880000	31.102105
2.890000	31.102105
2.900000	31.102105
2.910000	31.102105
2.920000	31.102105
2.930000	31.102105
2.940000	31.102105
2.950000	31.102105
2.960000	31.102105
2.970000	31.102105
2.980000	31.102105
2.990000	31.102105
3.000000	33.751723
3.010000	33.751723
3.020000	33.751723
3.030000	33.751723
3.040000	33.751723
3.050000	33.751723
3.060000	33.751723
3.070000	33.751723
3.080000	33.751723
3.090000	33.751723
3.100000	33.751723
3.110000	33.751723
3.120000	33.751723
3.130000	33.751723
3.140000	33.751723
3.150000	33.751723
3.160000	33.751723
3.170000	33.751723
3.180000	33.751723
3.190000	33.751723
3.200000	33.751723
3.210000	33.751723
3.220000	33.751723
3.230000	33.751723
3.240000	33.751723
3.250000	33.751723
3.260000	33.751723
3.270000	33.751723
3.280000	33.751723
3.290000	33.751723
3.300000	33.751723
3.310000	33.751723
3.320000	33.751723
3.330000	33.751723
3.340000	33.751723
3.350000	33.751723
3.360000	33.751723
3.370000	33.751723
3.380000	33.751723
3.390000	33.751723
3.400000	33.751723
3.410000	33.751723
3.420000	33.751723
3.430000	33.751723
3.440000	33.751723
3.450000	33.751723
3.460000	33.751723
3.470000	33.751723
3.480000	33.751723
3.490000	33.751723
3.500000	36.162006
3.510000	36.162006
3.520000	36.162006
3.530000	36.162006
3.540000	36.162006
3.550000	36.162006
3.560000	36.162006
3.570000	36.162006
3.580000	36.162006
3.590000	36.162006
3.600000	36.162006
3.610000	36.162006
3.620000	36.162006
3.630000	36.162006
3.640000	36.162006
3.650000	36.162006
3.660000	36.162006
3.670000	36.162006
3.680000	36.162006
3.690000	36.162006
3.700000	36.162006
3.710000	36.162006
3.720000	36.162006
3.730000	36.162006
3.740000	36.162006
3.750000	36.162006
3.760000	36.162006
3.770000	36.162006
3.780000	36.162006
3.790000	36.162006
3.800000	36.162006
3.810000	36.162006
3.820000	36.162006
3.830000	36.162006
3.840000	36.162006
3.850000	36.162006
3.860000	36.162006
3.870000	36.162006
3.880000	36.162006
3.890000	36.162006
3.900000	36.162006
3.910000	36.162006
3.920000	36.162006
3.930000	36.162006
3.940000	36.162006
3.950000	36.162006
3.960000	36.162006
3.970000	36.162006
3.980000	36.162006
3.990000	36.162006
4.000000	37.950600
4.010000	37.950600
4.020000	37.950600
4.030000	37.950600
4.040000	37.950600
4.050000	37.950600
4.060000	37.950600
4.070000	37.950600
4.080000	37.950600
4.090000	37.950600
4.100000	37.950600
4.110000	37.950600
4.120000	37.950600
4.130000	37.950600
4.140000	37.950600
4.150000	37.950600
4.160000	37.950600
4.170000	37.950600
4.180000	37.950600
4.190000	37.950600
4.200000	37.950600
4.210000	37.950600
4.220000	37.950600
4.230000	37.950600
4.240000	37.950600
4.250000	37.950600
4.260000	37.950600
4.270000	37.950600
4.280000	37.950600
4.290000	37.950600
4.300000	37.950600
4.310000	37.950600
4.320000	37.950600
4.330000	37.950600
4.340000	37.950600
4.350000	37.950600
4.360000	37.950600
4.370000	37.950600
4.380000	37.950600
4.390000	37.950600
4.400000	37.950600
4.410000	37.950600
4.420000	37.950600
4.430000	37.950600
4.440000	37.950600
4.450000	37.950600
4.460000	37.950600
4.470000	37.950600
4.480000	37.950600
4.490000	37.950600
4.500000	39.277588
4.510000	39.277588
4.520000	39.277588
4.530000	39.277588
4.540000	39.277588
4.550000	39.277588
4.560000	39.277588
4.570000	39.277588
4.580000	39.277588
4.590000	39.277588
4.600000	39.277588
4.610000	39.277588
4.620000	39.277588
4.630000	39.277588
4.640000	39.277588
4.650000	39.277588
4.660000	39.277588
4.670000	39.277588
4.680000	39.277588
4.690000	39.277588
4.700000	39.277588
4.710000	39.277588
4.720000	39.277588
4.730000	39.277588
4.740000	39.277588
4.750000	39.277588
4.760000	39.277588
4.770000	39.277588
4.780000	39.277588
4.790000	39.277588
4.800000	39.277588
4.810000	39.277588
4.820000	39.277588
4.830000	39.277588
4.840000	39.277588
4.850000	39.277588
4.860000	39.277588
4.870000	39.277588
4.880000	39.277588
4.890000	39.277588
4.900000	39.277588
4.910000	39.277588
4.920000	39.277588
4.930000	39.277588
4.940000	39.277588
4.950000	39.277588
4.960000	39.277588
4.970000	39.277588
4.980000	39.277588
4.990000	39.277588
5.000000	40.217415
5.010000	40.217415
5.020000	40.217415
5.030000	40.217415
5.040000	40.217415
5.050000	40.217415
5.060000	40.217415
5.070000	40.217415
5.080000	40.217415
5.090000	40.217415
5.100000	40.217415
5.110000	40.217415
5.120000	40.217415
5.130000	40.217415
5.140000	40.217415
5.150000	40.217415
5.160000	40.217415
5.170000	40.217415
5.180000	40.217415
5.190000	40.217415
5.200000	40.217415
5.210000	40.217415
5.220000	40.217415
5.230000	40.217415
5.240000	40.217415
5.250000	40.217415
5.260000	40.217415
5.270000	40.217415
5.280000	40.217415
5.290000	40.217415
5.300000	40.217415
5.310000	40.217415
5.320000	40.217415
5.330000	40.217415
5.340000	40.217415
5.350000	40.217415
5.360000	40.217415
5.370000	40.217415
5.380000	40.217415
5.390000	40.217415
5.400000	40.217415
5.410000	40.217415
5.420000	40.217415
5.430000	40.217415
5.440000	40.217415
5.450000	40.217415
5.460000	40.217415
5.470000	40.217415
5.480000	40.217415
5.490000	40.217415
5.500000	40.849148
5.510000	40.849148
5.520000	40.849148
5.530000	40.849148
5.540000	40.849148
5.550000	40.849148
5.560000	40.849148
5.570000	40.849148
5.580000	40.849148
5.590000	40.849148
5.600000	40.849148
5.610000	40.849148
5.620000	40.849148
5.630000	40.849148
5.640000	40.849148
5.650000	40.849148
5.660000	40.849148
5.670000	40.849148
5.680000	40.849148
5.690000	40.849148
5.700000	40.849148
5.710000	40.849148
5.720000	40.849148
5.730000	40.849148
5.740000	40.849148
5.750000	40.849148
5.760000	40.849148
5.770000	40.849148
5.780000	40.849148
5.790000	40.849148
5.800000	40.849148
5.810000	40.849148
5.820000	40.849148
5.830000	40.849148
5.840000	40.849148
5.850000	40.849148
5.860000	40.849148
5.870000	40.849148
5.880000	40.849148
5.890000	40.849148
5.900000	40.849148
5.910000	40.849148
5.920000	40.849148
5.930000	40.849148
5.940000	40.849148
5.950000	40.849148
5.960000	40.849148
5.970000	40.849148
5.980000	40.849148
5.990000	40.849148
6.000000	41.218573
6.010000	41.218573
6.020000	41.218573
6.030000	41.218573
6.040000	41.218573
6.050000	41.218573
6.060000	41.218573
6.070000	41.218573
6.080000	41.218573
6.090000	41.218573
6.100000	41.218573
6.110000	41.218573
6.120000	41.218573
6.130000	41.218573
6.140000	41.218573
6.150000	41.218573
6.160000	41.218573
6.170000	41.218573
6.180000	41.218573
6.190000	41.218573
6.200000	41.218573
6.210000	41.218573
6.220000	41.218573
6.230000	41.218573
6.240000	41.218573
6.250000	41.218573
6.260000	41.218573
6.270000	41.218573
6.280000	41.218573
6.290000	41.218573
6.300000	41.218573
6.310000	41.218573
6.320000	41.218573
6.330000	41.218573
6.340000	41.218573
6.350000	41.218573
6.360000	41.218573
6.370000	41.218573
6.380000	41.218573
6.390000	41.218573
6.400000	41.218573
6.410000	41.218573
6.420000	41.218573
6.430000	41.218573
6.440000	41.218573
6.450000	41.218573
6.460000	41.218573
6.470000	41.218573
6.480000	41.218573
6.490000	41.218573
6.500000	41.441705
6.510000	41.441705
6.520000	41.441705
6.530000	41.441705
6.540000	41.441705
6.550000	41.441705
6.560000	41.441705
6.570000	41.441705
6.580000	41.441705
6.590000	41.441705
6.600000	41.441705
6.610000	41.441705
6.620000	41.441705
6.630000	41.441705
6.640000	41.441705
6.650000	41.441705
6.660000	41.441705
6.670000	41.441705
6.680000	41.441705
6.690000	41.441705
6.700000	41.441705
6.710000	41.441705
6.720000	41.441705
6.730000	41.441705
6.740000	41.441705
6.750000	41.441705
6.760000	41.441705
6.770000	41.441705
6.780000	41.441705
6.790000	41.441705
6.800000	41.441705
6.810000	41.441705
6.820000	41.441705
6.830000	41.441705
6.840000	41.441705
6.850000	41.441705
6.860000	41.441705
6.870000	41.441705
6.880000	41.441705
6.890000	41.441705
6.900000	41.441705
6.910000	41.441705
6.920000	41.441705
6.930000	41.441705
6.940000	41.441705
6.950000	41.441705
6.960000	41.441705
6.970000	41.441705
6.980000	41.441705
6.990000	41.441705
7.000000	41.537199
7.010000	41.537199
7.020000	41.537199
7.030000	41.537199
7.040000	41.537199
7.050000	41.537199
7.060000	41.537199
7.070000	41.537199
7.080000	41.537199
7.090000	41.537199
7.100000	41.537199
7.110000	41.537199
7.120000	41.537199
7.130000	41.537199
7.140000	41.537199
7.150000	41.537199
7.160000	41.537199
7.170000	41.537199
7.180000	41.537199
7.190000	41.537199
7.200000	41.537199
7.210000	41.537199
7.220000	41.537199
7.230000	41.537199
7.240000	41.537199
7.250000	41.537199
7.260000	41.537199
7.270000	41.537199
7.280000	41.537199
7.290000	41.537199
7.300000	41.537199
7.310000	41.537199
7.320000	41.537199
7.330000	41.537199
7.340000	41.537199
7.350000	41.537199
7.360000	41.537199
7.370000	41.537199
7.380000	41.537199
7.390000	41.537199
7.400000	41.537199
7.410000	41.537199
7.420000	41.537199
7.430000	41.537199
7.440000	41.537199
7.450000	41.537199
7.460000	41.537199
7.470000	41.537199
7.480000	41.537199
7.490000	41.537199
7.500000	41.509026
7.510000	41.509026
7.520000	41.509026
7.530000	41.509026
7.540000	41.509026
7.550000	41.509026
7.560000	41.509026
7.570000	41.509026
7.580000	41.509026
7.590000	41.509026
7.600000	41.509026
7.610000	41.509026
7.620000	41.509026
7.630000	41.509026
7.640000	41.509026
7.650000	41.509026
7.660000	41.509026
7.670000	41.509026
7.680000	41.509026
7.690000	41.509026
7.700000	41.509026
7.710000	41.509026
7.720000	41.509026
7.730000	41.509026
7.740000	41.509026
7.750000	41.509026
7.760000	41.509026
7.770000	41.509026
7.780000	41.509026
7.790000	41.509026
7.800000	41.509026
7.810000	41.509026
7.820000	41.509026
7.830000	41.509026
7.840000	41.509026
7.850000	41.509026
7.860000	41.509026
7.870000	41.509026
7.880000	41.509026
7.890000	41.509026
7.900000	41.509026
7.910000	41.509026
7.920000	41.509026
7.930000	41.509026
7.940000	41.509026
7.950000	41.509026
7.960000	41.509026
7.970000	41.509026
7.980000	41.509026
7.990000	41.509026
8.000000	41.416331
8.010000	41.416331
8.020000	41.416331
8.030000	41.416331
8.040000	41.416331
8.050000	41.416331
8.060000	41.416331
8.070000	41.416331
8.080000	41.416331
8.090000	41.416331
8.100000	41.416331
8.110000	41.416331
8.120000	41.416331
8.130000	41.416331
8.140000	41.416331
8.150000	41.416331
8.160000	41.416331
8.170000	41.416331
8.180000	41.416331
8.190000	41.416331
8.200000	41.416331
8.210000	41.416331
8.220000	41.416331
8.230000	41.416331
8.240000	41.416331
8.250000	41.416331
8.260000	41.416331
8.270000	41.416331
8.280000	41.416331
8.290000	41.416331
8.300000	41.416331
8.310000	41.416331
8.320000	41.416331
8.330000	41.416331
8.340000	41.416331
8.350000	41.416331
8.360000	41.416331
8.370000	41.416331
8.380000	41.416331
8.390000	41.416331
8.400000	41.416331
8.410000	41.416331
8.420000	41.416331
8.430000	41.416331
8.440000	41.416331
8.450000	41.416331
8.460000	41.416331
8.470000	41.416331
8.480000	41.416331
8.490000	41.416331
8.500000	41.274429
8.510000	41.274429
8.520000	41.274429
8.530000	41.274429
8.540000	41.274429
8.550000	41.274429
8.560000	41.274429
8.570000	41.274429
8.580000	41.274429
8.590000	41.274429
8.600000	41.274429
8.610000	41.274429
8.620000	41.274429
8.630000	41.274429
8.640000	41.274429
8.650000	41.274429
8.660000	41.274429
8.670000	41.274429
8.680000	41.274429
8.690000	41.274429
8.700000	41.274429
8.710000	41.274429
8.720000	41.274429
8.730000	41.274429
8.740000	41.274429
8.750000	41.274429
8.760000	41.274429
8.770000	41.274429
8.780000	41.274429
8.790000	41.274429
8.800000	41.274429
8.810000	41.274429
8.820000	41.274429
8.830000	41.274429
8.840000	41.274429
8.850000	41.274429
8.860000	41.274429
8.870000	41.274429
8.880000	41.274429
8.890000	41.274429
8.900000	41.274429
8.910000	41.274429
8.920000	41.274429
8.930000	41.274429
8.940000	41.274429
8.950000	41.274429
8.960000	41.274429
8.970000	41.274429
8.980000	41.274429
8.990000	41.274429
9.000000	41.090030
9.010000	41.090030
9.020000	41.090030
9.030000	41.090030
9.040000	41.090030
9.050000	41.090030
9.060000	41.090030
9.070000	41.090030
9.080000	41.090030
9.090000	41.090030
9.100000	41.090030
9.110000	41.090030
9.120000	41.090030
9.130000	41.090030
9.140000	41.090030
9.150000	41.090030
9.160000	41.090030
9.170000	41.090030
9.180000	41.090030
9.190000	41.090030
9.200000	41.090030
9.210000	41.090030
9.220000	41.090030
9.230000	41.090030
9.240000	41.090030
9.250000	41.090030
9.260000	41.090030
9.270000	41.090030
9.280000	41.090030
9.290000	41.090030
9.300000	41.090030
9.310000	41.090030
9.320000	41.090030
9.330000	41.090030
9.340000	41.090030
9.350000	41.090030
9.360000	41.090030
9.370000	41.090030
9.380000	41.090030
9.390000	41.090030
9.400000	41.090030
9.410000	41.090030
9.420000	41.090030
9.430000	41.090030
9.440000	41.090030
9.450000	41.090030
9.460000	41.090030
9.470000	41.090030
9.480000	41.090030
9.490000	41.090030
9.500000	40.870239
9.510000	40.870239
9.520000	40.870239
9.530000	40.870239
9.540000	40.870239
9.550000	40.870239
9.560000	40.870239
9.570000	40.870239
9.580000	40.870239
9.590000	40.870239
9.600000	40.870239
9.610000	40.870239
9.620000	40.870239
9.630000	40.870239
9.640000	40.870239
9.650000	40.870239
9.660000	40.870239
9.670000	40.870239
9.680000	40.870239
9.690000	40.870239
9.700000	40.870239
9.710000	40.870239
9.720000	40.870239
9.730000	40.870239
9.740000	40.870239
9.750000	40.870239
9.760000	40.870239
