LabVIEW Measurement	
Writer_Version	2
Reader_Version	2
Separator	Tab
Decimal_Separator	.
Multi_Headings	No
X_Columns	One
Time_Pref	Absolute
Operator	biomech-dyno
Date	2023/05/24
Time	16:48:16.3068024999997945361
***End_of_Header***	
	
Channels	1	
Samples	10	
Date	2023/05/24	
Time	17:12:43.6289752999996277169	
X_Dimension	Time	
X0	0.0000000000000000E+0	
Delta_X	0.010000	
***End_of_Header***		
X_Value	Untitled	Comment
0.000000	25.123406
0.010000	25.123406
0.020000	25.123406
0.030000	25.123406
0.040000	25.123406
0.050000	25.123406
0.060000	25.123406
0.070000	25.123406
0.080000	25.123406
0.090000	25.123406
0.100000	25.123406
0.110000	25.123406
0.120000	25.123406
0.130000	25.123406
0.140000	25.123406
0.150000	25.123406
0.160000	25.123406
0.170000	25.123406
0.180000	25.123406
0.190000	25.123406
0.200000	25.123406
0.210000	25.123406
0.220000	25.123406
0.230000	25.123406
0.240000	25.123406
0.250000	25.123406
0.260000	25.123406
0.270000	25.123406
0.280000	25.123406
0.290000	25.123406
0.300000	25.123406
0.310000	25.123406
0.320000	25.123406
0.330000	25.123406
0.340000	25.123406
0.350000	25.123406
0.360000	25.123406
0.370000	25.123406
0.380000	25.123406
0.390000	25.123406
0.400000	25.123406
0.410000	25.123406
0.420000	25.123406
0.430000	25.123406
0.440000	25.123406
0.450000	25.123406
0.460000	25.123406
0.470000	25.123406
0.480000	25.123406
0.490000	25.123406
0.500000	25.203902
0.510000	25.203902
0.520000	25.203902
0.530000	25.203902
0.540000	25.203902
0.550000	25.203902
0.560000	25.203902
0.570000	25.203902
0.580000	25.203902
0.590000	25.203902
0.600000	25.203902
0.610000	25.203902
0.620000	25.203902
0.630000	25.203902
0.640000	25.203902
0.650000	25.203902
0.660000	25.203902
0.670000	25.203902
0.680000	25.203902
0.690000	25.203902
0.700000	25.203902
0.710000	25.203902
0.720000	25.203902
0.730000	25.203902
0.740000	25.203902
0.750000	25.203902
0.760000	25.203902
0.770000	25.203902
0.780000	25.203902
0.790000	25.203902
0.800000	25.203902
0.810000	25.203902
0.820000	25.203902
0.830000	25.203902
0.840000	25.203902
0.850000	25.203902
0.860000	25.203902
0.870000	25.203902
0.880000	25.203902
0.890000	25.203902
0.900000	25.203902
0.910000	25.203902
0.920000	25.203902
0.930000	25.203902
0.940000	25.203902
0.950000	25.203902
0.960000	25.203902
0.970000	25.203902
0.980000	25.203902
0.990000	25.203902
1.000000	26.044354
1.010000	26.044354
1.020000	26.044354
1.030000	26.044354
1.040000	26.044354
1.050000	26.044354
1.060000	26.044354
1.070000	26.044354
1.080000	26.044354
1.090000	26.044354
1.100000	26.044354
1.110000	26.044354
1.120000	26.044354
1.130000	26.044354
1.140000	26.044354
1.150000	26.044354
1.160000	26.044354
1.170000	26.044354
1.180000	26.044354
1.190000	26.044354
1.200000	26.044354
1.210000	26.044354
1.220000	26.044354
1.230000	26.044354
1.240000	26.044354
1.250000	26.044354
1.260000	26.044354
1.270000	26.044354
1.280000	26.044354
1.290000	26.044354
1.300000	26.044354
1.310000	26.044354
1.320000	26.044354
1.330000	26.044354
1.340000	26.044354
1.350000	26.044354
1.360000	26.044354
1.370000	26.044354
1.380000	26.044354
1.390000	26.044354
1.400000	26.044354
1.410000	26.044354
1.420000	26.044354
1.430000	26.044354
1.440000	26.044354
1.450000	26.044354
1.460000	26.044354
1.470000	26.044354
1.480000	26.044354
1.490000	26.044354
1.500000	28.020168
1.510000	28.020168
1.520000	28.020168
1.530000	28.020168
1.540000	28.020168
1.550000	28.020168
1.560000	28.020168
1.570000	28.020168
1.580000	28.020168
1.590000	28.020168
1.600000	28.020168
1.610000	28.020168
1.620000	28.020168
1.630000	28.020168
1.640000	28.020168
1.650000	28.020168
1.660000	28.020168
1.670000	28.020168
1.680000	28.020168
1.690000	28.020168
1.700000	28.020168
1.710000	28.020168
1.720000	28.020168
1.730000	28.020168
1.740000	28.020168
1.750000	28.020168
1.760000	28.020168
1.770000	28.020168
1.780000	28.020168
1.790000	28.020168
1.800000	28.020168
1.810000	28.020168
1.820000	28.020168
1.830000	28.020168
1.840000	28.020168
1.850000	28.020168
1.860000	28.020168
1.870000	28.020168
1.880000	28.020168
1.890000	28.020168
1.900000	28.020168
1.910000	28.020168
1.920000	28.020168
1.930000	28.020168
1.940000	28.020168
1.950000	28.020168
1.960000	28.020168
1.970000	28.020168
1.980000	28.020168
1.990000	28.020168
2.000000	30.934395
2.010000	30.934395
2.020000	30.934395
2.030000	30.934395
2.040000	30.934395
2.050000	30.934395
2.060000	30.934395
2.070000	30.934395
2.080000	30.934395
2.090000	30.934395
2.100000	30.934395
2.110000	30.934395
2.120000	30.934395
2.130000	30.934395
2.140000	30.934395
2.150000	30.934395
2.160000	30.934395
2.170000	30.934395
2.180000	30.934395
2.190000	30.934395
2.200000	30.934395
2.210000	30.934395
2.220000	30.934395
2.230000	30.934395
2.240000	30.934395
2.250000	30.934395
2.260000	30.934395
2.270000	30.934395
2.280000	30.934395
2.290000	30.934395
2.300000	30.934395
2.310000	30.934395
2.320000	30.934395
2.330000	30.934395
2.340000	30.934395
2.350000	30.934395
2.360000	30.934395
2.370000	30.934395
2.380000	30.934395
2.390000	30.934395
2.400000	30.934395
2.410000	30.934395
2.420000	30.934395
2.430000	30.934395
2.440000	30.934395
2.450000	30.934395
2.460000	30.934395
2.470000	30.934395
2.480000	30.934395
2.490000	30.934395
2.500000	34.587725
2.510000	34.587725
2.520000	34.587725
2.530000	34.587725
2.540000	34.587725
2.550000	34.587725
2.560000	34.587725
2.570000	34.587725
2.580000	34.587725
2.590000	34.587725
2.600000	34.587725
2.610000	34.587725
2.620000	34.587725
2.630000	34.587725
2.640000	34.587725
2.650000	34.587725
2.660000	34.587725
2.670000	34.587725
2.680000	34.587725
2.690000	34.587725
2.700000	34.587725
2.710000	34.587725
2.720000	34.587725
2.730000	34.587725
2.740000	34.587725
2.750000	34.587725
2.760000	34.587725
2.770000	34.587725
2.780000	34.587725
2.790000	34.587725
2.800000	34.587725
2.810000	34.587725
2.820000	34.587725
2.830000	34.587725
2.840000	34.587725
2.850000	34.587725
2.860000	34.587725
2.870000	34.587725
2.880000	34.587725
2.890000	34.587725
2.900000	34.587725
2.910000	34.587725
2.920000	34.587725
2.930000	34.587725
2.940000	34.587725
2.950000	34.587725
2.960000	34.587725
2.970000	34.587725
2.980000	34.587725
2.990000	34.587725
3.000000	38.751470
3.010000	38.751470
3.020000	38.751470
3.030000	38.751470
3.040000	38.751470
3.050000	38.751470
3.060000	38.751470
3.070000	38.751470
3.080000	38.751470
3.090000	38.751470
3.100000	38.751470
3.110000	38.751470
3.120000	38.751470
3.130000	38.751470
3.140000	38.751470
3.150000	38.751470
3.160000	38.751470
3.170000	38.751470
3.180000	38.751470
3.190000	38.751470
3.200000	38.751470
3.210000	38.751470
3.220000	38.751470
3.230000	38.751470
3.240000	38.751470
3.250000	38.751470
3.260000	38.751470
3.270000	38.751470
3.280000	38.751470
3.290000	38.751470
3.300000	38.751470
3.310000	38.751470
3.320000	38.751470
3.330000	38.751470
3.340000	38.751470
3.350000	38.751470
3.360000	38.751470
3.370000	38.751470
3.380000	38.751470
3.390000	38.751470
3.400000	38.751470
3.410000	38.751470
3.420000	38.751470
3.430000	38.751470
3.440000	38.751470
3.450000	38.751470
3.460000	38.751470
3.470000	38.751470
3.480000	38.751470
3.490000	38.751470
3.500000	42.611135
3.510000	42.611135
3.520000	42.611135
3.530000	42.611135
3.540000	42.611135
3.550000	42.611135
3.560000	42.611135
3.570000	42.611135
3.580000	42.611135
3.590000	42.611135
3.600000	42.611135
3.610000	42.611135
3.620000	42.611135
3.630000	42.611135
3.640000	42.611135
3.650000	42.611135
3.660000	42.611135
3.670000	42.611135
3.680000	42.611135
3.690000	42.611135
3.700000	42.611135
3.710000	42.611135
3.720000	42.611135
3.730000	42.611135
3.740000	42.611135
3.750000	42.611135
3.760000	42.611135
3.770000	42.611135
3.780000	42.611135
3.790000	42.611135
3.800000	42.611135
3.810000	42.611135
3.820000	42.611135
3.830000	42.611135
3.840000	42.611135
3.850000	42.611135
3.860000	42.611135
3.870000	42.611135
3.880000	42.611135
3.890000	42.611135
3.900000	42.611135
3.910000	42.611135
3.920000	42.611135
3.930000	42.611135
3.940000	42.611135
3.950000	42.611135
3.960000	42.611135
3.970000	42.611135
3.980000	42.611135
3.990000	42.611135
4.000000	45.542490
4.010000	45.542490
4.020000	45.542490
4.030000	45.542490
4.040000	45.542490
4.050000	45.542490
4.060000	45.542490
4.070000	45.542490
4.080000	45.542490
4.090000	45.542490
4.100000	45.542490
4.110000	45.542490
4.120000	45.542490
4.130000	45.542490
4.140000	45.542490
4.150000	45.542490
4.160000	45.542490
4.170000	45.542490
4.180000	45.542490
4.190000	45.542490
4.200000	45.542490
4.210000	45.542490
4.220000	45.542490
4.230000	45.542490
4.240000	45.542490
4.250000	45.542490
4.260000	45.542490
4.270000	45.542490
4.280000	45.542490
4.290000	45.542490
4.300000	45.542490
4.310000	45.542490
4.320000	45.542490
4.330000	45.542490
4.340000	45.542490
4.350000	45.542490
4.360000	45.542490
4.370000	45.542490
4.380000	45.542490
4.390000	45.542490
4.400000	45.542490
4.410000	45.542490
4.420000	45.542490
4.430000	45.542490
4.440000	45.542490
4.450000	45.542490
4.460000	45.542490
4.470000	45.542490
4.480000	45.542490
4.490000	45.542490
4.500000	47.686278
4.510000	47.686278
4.520000	47.686278
4.530000	47.686278
4.540000	47.686278
4.550000	47.686278
4.560000	47.686278
4.570000	47.686278
4.580000	47.686278
4.590000	47.686278
4.600000	47.686278
4.610000	47.686278
4.620000	47.686278
4.630000	47.686278
4.640000	47.686278
4.650000	47.686278
4.660000	47.686278
4.670000	47.686278
4.680000	47.686278
4.690000	47.686278
4.700000	47.686278
4.710000	47.686278
4.720000	47.686278
4.730000	47.686278
4.740000	47.686278
4.750000	47.686278
4.760000	47.686278
4.770000	47.686278
4.780000	47.686278
4.790000	47.686278
4.800000	47.686278
4.810000	47.686278
4.820000	47.686278
4.830000	47.686278
4.840000	47.686278
4.850000	47.686278
4.860000	47.686278
4.870000	47.686278
4.880000	47.686278
4.890000	47.686278
4.900000	47.686278
4.910000	47.686278
4.920000	47.686278
4.930000	47.686278
4.940000	47.686278
4.950000	47.686278
4.960000	47.686278
4.970000	47.686278
4.980000	47.686278
4.990000	47.686278
5.000000	49.232629
5.010000	49.232629
5.020000	49.232629
5.030000	49.232629
5.040000	49.232629
5.050000	49.232629
5.060000	49.232629
5.070000	49.232629
5.080000	49.232629
5.090000	49.232629
5.100000	49.232629
5.110000	49.232629
5.120000	49.232629
5.130000	49.232629
5.140000	49.232629
5.150000	49.232629
5.160000	49.232629
5.170000	49.232629
5.180000	49.232629
5.190000	49.232629
5.200000	49.232629
5.210000	49.232629
5.220000	49.232629
5.230000	49.232629
5.240000	49.232629
5.250000	49.232629
5.260000	49.232629
5.270000	49.232629
5.280000	49.232629
5.290000	49.232629
5.300000	49.232629
5.310000	49.232629
5.320000	49.232629
5.330000	49.232629
5.340000	49.232629
5.350000	49.232629
5.360000	49.232629
5.370000	49.232629
5.380000	49.232629
5.390000	49.232629
5.400000	49.232629
5.410000	49.232629
5.420000	49.232629
5.430000	49.232629
5.440000	49.232629
5.450000	49.232629
5.460000	49.232629
5.470000	49.232629
5.480000	49.232629
5.490000	49.232629
5.500000	50.292924
5.510000	50.292924
5.520000	50.292924
5.530000	50.292924
5.540000	50.292924
5.550000	50.292924
5.560000	50.292924
5.570000	50.292924
5.580000	50.292924
5.590000	50.292924
5.600000	50.292924
5.610000	50.292924
5.620000	50.292924
5.630000	50.292924
5.640000	50.292924
5.650000	50.292924
5.660000	50.292924
5.670000	50.292924
5.680000	50.292924
5.690000	50.292924
5.700000	50.292924
5.710000	50.292924
5.720000	50.292924
5.730000	50.292924
5.740000	50.292924
5.750000	50.292924
5.760000	50.292924
5.770000	50.292924
5.780000	50.292924
5.790000	50.292924
5.800000	50.292924
5.810000	50.292924
5.820000	50.292924
5.830000	50.292924
5.840000	50.292924
5.850000	50.292924
5.860000	50.292924
5.870000	50.292924
5.880000	50.292924
5.890000	50.292924
5.900000	50.292924
5.910000	50.292924
5.920000	50.292924
5.930000	50.292924
5.940000	50.292924
5.950000	50.292924
5.960000	50.292924
5.970000	50.292924
5.980000	50.292924
5.990000	50.292924
6.000000	50.974558
6.010000	50.974558
6.020000	50.974558
6.030000	50.974558
6.040000	50.974558
6.050000	50.974558
6.060000	50.974558
6.070000	50.974558
6.080000	50.974558
6.090000	50.974558
6.100000	50.974558
6.110000	50.974558
6.120000	50.974558
6.130000	50.974558
6.140000	50.974558
6.150000	50.974558
6.160000	50.974558
6.170000	50.974558
6.180000	50.974558
6.190000	50.974558
6.200000	50.974558
6.210000	50.974558
6.220000	50.974558
6.230000	50.974558
6.240000	50.974558
6.250000	50.974558
6.260000	50.974558
6.270000	50.974558
6.280000	50.974558
6.290000	50.974558
6.300000	50.974558
6.310000	50.974558
6.320000	50.974558
6.330000	50.974558
6.340000	50.974558
6.350000	50.974558
6.360000	50.974558
6.370000	50.974558
6.380000	50.974558
6.390000	50.974558
6.400000	50.974558
6.410000	50.974558
6.420000	50.974558
6.430000	50.974558
6.440000	50.974558
6.450000	50.974558
6.460000	50.974558
6.470000	50.974558
6.480000	50.974558
6.490000	50.974558
6.500000	51.370928
6.510000	51.370928
6.520000	51.370928
6.530000	51.370928
6.540000	51.370928
6.550000	51.370928
6.560000	51.370928
6.570000	51.370928
6.580000	51.370928
6.590000	51.370928
6.600000	51.370928
6.610000	51.370928
6.620000	51.370928
6.630000	51.370928
6.640000	51.370928
6.650000	51.370928
6.660000	51.370928
6.670000	51.370928
6.680000	51.370928
6.690000	51.370928
6.700000	51.370928
6.710000	51.370928
6.720000	51.370928
6.730000	51.370928
6.740000	51.370928
6.750000	51.370928
6.760000	51.370928
6.770000	51.370928
6.780000	51.370928
6.790000	51.370928
6.800000	51.370928
6.810000	51.370928
6.820000	51.370928
6.830000	51.370928
6.840000	51.370928
6.850000	51.370928
6.860000	51.370928
6.870000	51.370928
6.880000	51.370928
6.890000	51.370928
6.900000	51.370928
6.910000	51.370928
6.920000	51.370928
6.930000	51.370928
6.940000	51.370928
6.950000	51.370928
6.960000	51.370928
6.970000	51.370928
6.980000	51.370928
6.990000	51.370928
7.000000	51.543468
7.010000	51.543468
7.020000	51.543468
7.030000	51.543468
7.040000	51.543468
7.050000	51.543468
7.060000	51.543468
7.070000	51.543468
7.080000	51.543468
7.090000	51.543468
7.100000	51.543468
7.110000	51.543468
7.120000	51.543468
7.130000	51.543468
7.140000	51.543468
7.150000	51.543468
7.160000	51.543468
7.170000	51.543468
7.180000	51.543468
7.190000	51.543468
7.200000	51.543468
7.210000	51.543468
7.220000	51.543468
7.230000	51.543468
7.240000	51.543468
7.250000	51.543468
7.260000	51.543468
7.270000	51.543468
7.280000	51.543468
7.290000	51.543468
7.300000	51.543468
7.310000	51.543468
7.320000	51.543468
7.330000	51.543468
7.340000	51.543468
7.350000	51.543468
7.360000	51.543468
7.370000	51.543468
7.380000	51.543468
7.390000	51.543468
7.400000	51.543468
7.410000	51.543468
7.420000	51.543468
7.430000	51.543468
7.440000	51.543468
7.450000	51.543468
7.460000	51.543468
7.470000	51.543468
7.480000	51.543468
7.490000	51.543468
7.500000	51.553772
7.510000	51.553772
7.520000	51.553772
7.530000	51.553772
7.540000	51.553772
7.550000	51.553772
7.560000	51.553772
7.570000	51.553772
7.580000	51.553772
7.590000	51.553772
7.600000	51.553772
7.610000	51.553772
7.620000	51.553772
7.630000	51.553772
7.640000	51.553772
7.650000	51.553772
7.660000	51.553772
7.670000	51.553772
7.680000	51.553772
7.690000	51.553772
7.700000	51.553772
7.710000	51.553772
7.720000	51.553772
7.730000	51.553772
7.740000	51.553772
7.750000	51.553772
7.760000	51.553772
7.770000	51.553772
7.780000	51.553772
7.790000	51.553772
7.800000	51.553772
7.810000	51.553772
7.820000	51.553772
7.830000	51.553772
7.840000	51.553772
7.850000	51.553772
7.860000	51.553772
7.870000	51.553772
7.880000	51.553772
7.890000	51.553772
7.900000	51.553772
7.910000	51.553772
7.920000	51.553772
7.930000	51.553772
7.940000	51.553772
7.950000	51.553772
7.960000	51.553772
7.970000	51.553772
7.980000	51.553772
7.990000	51.553772
8.000000	51.437747
8.010000	51.437747
8.020000	51.437747
8.030000	51.437747
8.040000	51.437747
8.050000	51.437747
8.060000	51.437747
8.070000	51.437747
8.080000	51.437747
8.090000	51.437747
8.100000	51.437747
8.110000	51.437747
8.120000	51.437747
8.130000	51.437747
8.140000	51.437747
8.150000	51.437747
8.160000	51.437747
8.170000	51.437747
8.180000	51.437747
8.190000	51.437747
8.200000	51.437747
8.210000	51.437747
8.220000	51.437747
8.230000	51.437747
8.240000	51.437747
8.250000	51.437747
8.260000	51.437747
8.270000	51.437747
8.280000	51.437747
8.290000	51.437747
8.300000	51.437747
8.310000	51.437747
8.320000	51.437747
8.330000	51.437747
8.340000	51.437747
8.350000	51.437747
8.360000	51.437747
8.370000	51.437747
8.380000	51.437747
8.390000	51.437747
8.400000	51.437747
8.410000	51.437747
8.420000	51.437747
8.430000	51.437747
8.440000	51.437747
8.450000	51.437747
8.460000	51.437747
8.470000	51.437747
8.480000	51.437747
8.490000	51.437747
8.500000	51.218032
8.510000	51.218032
8.520000	51.218032
8.530000	51.218032
8.540000	51.218032
8.550000	51.218032
8.560000	51.218032
8.570000	51.218032
8.580000	51.218032
8.590000	51.218032
8.600000	51.218032
8.610000	51.218032
8.620000	51.218032
8.630000	51.218032
8.640000	51.218032
8.650000	51.218032
8.660000	51.218032
8.670000	51.218032
8.680000	51.218032
8.690000	51.218032
8.700000	51.218032
8.710000	51.218032
8.720000	51.218032
8.730000	51.218032
8.740000	51.218032
8.750000	51.218032
8.760000	51.218032
8.770000	51.218032
8.780000	51.218032
8.790000	51.218032
8.800000	51.218032
8.810000	51.218032
8.820000	51.218032
8.830000	51.218032
8.840000	51.218032
8.850000	51.218032
8.860000	51.218032
8.870000	51.218032
8.880000	51.218032
8.890000	51.218032
8.900000	51.218032
8.910000	51.218032
8.920000	51.218032
8.930000	51.218032
8.940000	51.218032
8.950000	51.218032
8.960000	51.218032
8.970000	51.218032
8.980000	51.218032
8.990000	51.218032
9.000000	50.924159
9.010000	50.924159
9.020000	50.924159
9.030000	50.924159
9.040000	50.924159
9.050000	50.924159
9.060000	50.924159
9.070000	50.924159
9.080000	50.924159
9.090000	50.924159
9.100000	50.924159
9.110000	50.924159
9.120000	50.924159
9.130000	50.924159
9.140000	50.924159
9.150000	50.924159
9.160000	50.924159
9.170000	50.924159
9.180000	50.924159
9.190000	50.924159
9.200000	50.924159
9.210000	50.924159
9.220000	50.924159
9.230000	50.924159
9.240000	50.924159
9.250000	50.924159
9.260000	50.924159
9.270000	50.924159
9.280000	50.924159
9.290000	50.924159
9.300000	50.924159
9.310000	50.924159
9.320000	50.924159
9.330000	50.924159
9.340000	50.924159
9.350000	50.924159
9.360000	50.924159
9.370000	50.924159
9.380000	50.924159
9.390000	50.924159
9.400000	50.924159
9.410000	50.924159
9.420000	50.924159
9.430000	50.924159
9.440000	50.924159
9.450000	50.924159
9.460000	50.924159
9.470000	50.924159
9.480000	50.924159
9.490000	50.924159
9.500000	50.567837
9.510000	50.567837
9.520000	50.567837
9.530000	50.567837
9.540000	50.567837
9.550000	50.567837
9.560000	50.567837
9.570000	50.567837
9.580000	50.567837
9.590000	50.567837
9.600000	50.567837
9.610000	50.567837
9.620000	50.567837
9.630000	50.567837
9.640000	50.567837
9.650000	50.567837
9.660000	50.567837
9.670000	50.567837
9.680000	50.567837
9.690000	50.567837
9.700000	50.567837
9.710000	50.567837
9.720000	50.567837
9.730000	50.567837
9.740000	50.567837
9.750000	50.567837
9.760000	50.567837
