LabVIEW Measurement	
Writer_Version	2
Reader_Version	2
Separator	Tab
Decimal_Separator	.
Multi_Headings	No
X_Columns	One
Time_Pref	Absolute
Operator	biomech-dyno
Date	2023/05/24
Time	17:17:03.6544158999996145439
***End_of_Header***	
	
Channels	1	
Samples	10	
Date	2023/05/24	
Time	17:28:46.1138218999998944603	
X_Dimension	Time	
X0	0.0000000000000000E+0	
Delta_X	0.010000	
***End_of_Header***		
X_Value	Untitled	Comment
0.000000	25.076782
0.010000	25.076782
0.020000	25.076782
0.030000	25.076782
0.040000	25.076782
0.050000	25.076782
0.060000	25.076782
0.070000	25.076782
0.080000	25.076782
0.090000	25.076782
0.100000	25.076782
0.110000	25.076782
0.120000	25.076782
0.130000	25.076782
0.140000	25.076782
0.150000	25.076782
0.160000	25.076782
0.170000	25.076782
0.180000	25.076782
0.190000	25.076782
0.200000	25.076782
0.210000	25.076782
0.220000	25.076782
0.230000	25.076782
0.240000	25.076782
0.250000	25.076782
0.260000	25.076782
0.270000	25.076782
0.280000	25.076782
0.290000	25.076782
0.300000	25.076782
0.310000	25.076782
0.320000	25.076782
0.330000	25.076782
0.340000	25.076782
0.350000	25.076782
0.360000	25.076782
0.370000	25.076782
0.380000	25.076782
0.390000	25.076782
0.400000	25.076782
0.410000	25.076782
0.420000	25.076782
0.430000	25.076782
0.440000	25.076782
0.450000	25.076782
0.460000	25.076782
0.470000	25.076782
0.480000	25.076782
0.490000	25.076782
0.500000	25.155576
0.510000	25.155576
0.520000	25.155576
0.530000	25.155576
0.540000	25.155576
0.550000	25.155576
0.560000	25.155576
0.570000	25.155576
0.580000	25.155576
0.590000	25.155576
0.600000	25.155576
0.610000	25.155576
0.620000	25.155576
0.630000	25.155576
0.640000	25.155576
0.650000	25.155576
0.660000	25.155576
0.670000	25.155576
0.680000	25.155576
0.690000	25.155576
0.700000	25.155576
0.710000	25.155576
0.720000	25.155576
0.730000	25.155576
0.740000	25.155576
0.750000	25.155576
0.760000	25.155576
0.770000	25.155576
0.780000	25.155576
0.790000	25.155576
0.800000	25.155576
0.810000	25.155576
0.820000	25.155576
0.830000	25.155576
0.840000	25.155576
0.850000	25.155576
0.860000	25.155576
0.870000	25.155576
0.880000	25.155576
0.890000	25.155576
0.900000	25.155576
0.910000	25.155576
0.920000	25.155576
0.930000	25.155576
0.940000	25.155576
0.950000	25.155576
0.960000	25.155576
0.970000	25.155576
0.980000	25.155576
0.990000	25.155576
1.000000	26.000185
1.010000	26.000185
1.020000	26.000185
1.030000	26.000185
1.040000	26.000185
1.050000	26.000185
1.060000	26.000185
1.070000	26.000185
1.080000	26.000185
1.090000	26.000185
1.100000	26.000185
1.110000	26.000185
1.120000	26.000185
1.130000	26.000185
1.140000	26.000185
1.150000	26.000185
1.160000	26.000185
1.170000	26.000185
1.180000	26.000185
1.190000	26.000185
1.200000	26.000185
1.210000	26.000185
1.220000	26.000185
1.230000	26.000185
1.240000	26.000185
1.250000	26.000185
1.260000	26.000185
1.270000	26.000185
1.280000	26.000185
1.290000	26.000185
1.300000	26.000185
1.310000	26.000185
1.320000	26.000185
1.330000	26.000185
1.340000	26.000185
1.350000	26.000185
1.360000	26.000185
1.370000	26.000185
1.380000	26.000185
1.390000	26.000185
1.400000	26.000185
1.410000	26.000185
1.420000	26.000185
1.430000	26.000185
1.440000	26.000185
1.450000	26.000185
1.460000	26.000185
1.470000	26.000185
1.480000	26.000185
1.490000	26.000185
1.500000	27.989436
1.510000	27.989436
1.520000	27.989436
1.530000	27.989436
1.540000	27.989436
1.550000	27.989436
1.560000	27.989436
1.570000	27.989436
1.580000	27.989436
1.590000	27.989436
1.600000	27.989436
1.610000	27.989436
1.620000	27.989436
1.630000	27.989436
1.640000	27.989436
1.650000	27.989436
1.660000	27.989436
1.670000	27.989436
1.680000	27.989436
1.690000	27.989436
1.700000	27.989436
1.710000	27.989436
1.720000	27.989436
1.730000	27.989436
1.740000	27.989436
1.750000	27.989436
1.760000	27.989436
1.770000	27.989436
1.780000	27.989436
1.790000	27.989436
1.800000	27.989436
1.810000	27.989436
1.820000	27.989436
1.830000	27.989436
1.840000	27.989436
1.850000	27.989436
1.860000	27.989436
1.870000	27.989436
1.880000	27.989436
1.890000	27.989436
1.900000	27.989436
1.910000	27.989436
1.920000	27.989436
1.930000	27.989436
1.940000	27.989436
1.950000	27.989436
1.960000	27.989436
1.970000	27.989436
1.980000	27.989436
1.990000	27.989436
2.000000	30.941566
2.010000	30.941566
2.020000	30.941566
2.030000	30.941566
2.040000	30.941566
2.050000	30.941566
2.060000	30.941566
2.070000	30.941566
2.080000	30.941566
2.090000	30.941566
2.100000	30.941566
2.110000	30.941566
2.120000	30.941566
2.130000	30.941566
2.140000	30.941566
2.150000	30.941566
2.160000	30.941566
2.170000	30.941566
2.180000	30.941566
2.190000	30.941566
2.200000	30.941566
2.210000	30.941566
2.220000	30.941566
2.230000	30.941566
2.240000	30.941566
2.250000	30.941566
2.260000	30.941566
2.270000	30.941566
2.280000	30.941566
2.290000	30.941566
2.300000	30.941566
2.310000	30.941566
2.320000	30.941566
2.330000	30.941566
2.340000	30.941566
2.350000	30.941566
2.360000	30.941566
2.370000	30.941566
2.380000	30.941566
2.390000	30.941566
2.400000	30.941566
2.410000	30.941566
2.420000	30.941566
2.430000	30.941566
2.440000	30.941566
2.450000	30.941566
2.460000	30.941566
2.470000	30.941566
2.480000	30.941566
2.490000	30.941566
2.500000	34.649253
2.510000	34.649253
2.520000	34.649253
2.530000	34.649253
2.540000	34.649253
2.550000	34.649253
2.560000	34.649253
2.570000	34.649253
2.580000	34.649253
2.590000	34.649253
2.600000	34.649253
2.610000	34.649253
2.620000	34.649253
2.630000	34.649253
2.640000	34.649253
2.650000	34.649253
2.660000	34.649253
2.670000	34.649253
2.680000	34.649253
2.690000	34.649253
2.700000	34.649253
2.710000	34.649253
2.720000	34.649253
2.730000	34.649253
2.740000	34.649253
2.750000	34.649253
2.760000	34.649253
2.770000	34.649253
2.780000	34.649253
2.790000	34.649253
2.800000	34.649253
2.810000	34.649253
2.820000	34.649253
2.830000	34.649253
2.840000	34.649253
2.850000	34.649253
2.860000	34.649253
2.870000	34.649253
2.880000	34.649253
2.890000	34.649253
2.900000	34.649253
2.910000	34.649253
2.920000	34.649253
2.930000	34.649253
2.940000	34.649253
2.950000	34.649253
2.960000	34.649253
2.970000	34.649253
2.980000	34.649253
2.990000	34.649253
3.000000	38.841773
3.010000	38.841773
3.020000	38.841773
3.030000	38.841773
3.040000	38.841773
3.050000	38.841773
3.060000	38.841773
3.070000	38.841773
3.080000	38.841773
3.090000	38.841773
3.100000	38.841773
3.110000	38.841773
3.120000	38.841773
3.130000	38.841773
3.140000	38.841773
3.150000	38.841773
3.160000	38.841773
3.170000	38.841773
3.180000	38.841773
3.190000	38.841773
3.200000	38.841773
3.210000	38.841773
3.220000	38.841773
3.230000	38.841773
3.240000	38.841773
3.250000	38.841773
3.260000	38.841773
3.270000	38.841773
3.280000	38.841773
3.290000	38.841773
3.300000	38.841773
3.310000	38.841773
3.320000	38.841773
3.330000	38.841773
3.340000	38.841773
3.350000	38.841773
3.360000	38.841773
3.370000	38.841773
3.380000	38.841773
3.390000	38.841773
3.400000	38.841773
3.410000	38.841773
3.420000	38.841773
3.430000	38.841773
3.440000	38.841773
3.450000	38.841773
3.460000	38.841773
3.470000	38.841773
3.480000	38.841773
3.490000	38.841773
3.500000	42.598398
3.510000	42.598398
3.520000	42.598398
3.530000	42.598398
3.540000	42.598398
3.550000	42.598398
3.560000	42.598398
3.570000	42.598398
3.580000	42.598398
3.590000	42.598398
3.600000	42.598398
3.610000	42.598398
3.620000	42.598398
3.630000	42.598398
3.640000	42.598398
3.650000	42.598398
3.660000	42.598398
3.670000	42.598398
3.680000	42.598398
3.690000	42.598398
3.700000	42.598398
3.710000	42.598398
3.720000	42.598398
3.730000	42.598398
3.740000	42.598398
3.750000	42.598398
3.760000	42.598398
3.770000	42.598398
3.780000	42.598398
3.790000	42.598398
3.800000	42.598398
3.810000	42.598398
3.820000	42.598398
3.830000	42.598398
3.840000	42.598398
3.850000	42.598398
3.860000	42.598398
3.870000	42.598398
3.880000	42.598398
3.890000	42.598398
3.900000	42.598398
3.910000	42.598398
3.920000	42.598398
3.930000	42.598398
3.940000	42.598398
3.950000	42.598398
3.960000	42.598398
3.970000	42.598398
3.980000	42.598398
3.990000	42.598398
4.000000	45.391653
4.010000	45.391653
4.020000	45.391653
4.030000	45.391653
4.040000	45.391653
4.050000	45.391653
4.060000	45.391653
4.070000	45.391653
4.080000	45.391653
4.090000	45.391653
4.100000	45.391653
4.110000	45.391653
4.120000	45.391653
4.130000	45.391653
4.140000	45.391653
4.150000	45.391653
4.160000	45.391653
4.170000	45.391653
4.180000	45.391653
4.190000	45.391653
4.200000	45.391653
4.210000	45.391653
4.220000	45.391653
4.230000	45.391653
4.240000	45.391653
4.250000	45.391653
4.260000	45.391653
4.270000	45.391653
4.280000	45.391653
4.290000	45.391653
4.300000	45.391653
4.310000	45.391653
4.320000	45.391653
4.330000	45.391653
4.340000	45.391653
4.350000	45.391653
4.360000	45.391653
4.370000	45.391653
4.380000	45.391653
4.390000	45.391653
4.400000	45.391653
4.410000	45.391653
4.420000	45.391653
4.430000	45.391653
4.440000	45.391653
4.450000	45.391653
4.460000	45.391653
4.470000	45.391653
4.480000	45.391653
4.490000	45.391653
4.500000	47.437109
4.510000	47.437109
4.520000	47.437109
4.530000	47.437109
4.540000	47.437109
4.550000	47.437109
4.560000	47.437109
4.570000	47.437109
4.580000	47.437109
4.590000	47.437109
4.600000	47.437109
4.610000	47.437109
4.620000	47.437109
4.630000	47.437109
4.640000	47.437109
4.650000	47.437109
4.660000	47.437109
4.670000	47.437109
4.680000	47.437109
4.690000	47.437109
4.700000	47.437109
4.710000	47.437109
4.720000	47.437109
4.730000	47.437109
4.740000	47.437109
4.750000	47.437109
4.760000	47.437109
4.770000	47.437109
4.780000	47.437109
4.790000	47.437109
4.800000	47.437109
4.810000	47.437109
4.820000	47.437109
4.830000	47.437109
4.840000	47.437109
4.850000	47.437109
4.860000	47.437109
4.870000	47.437109
4.880000	47.437109
4.890000	47.437109
4.900000	47.437109
4.910000	47.437109
4.920000	47.437109
4.930000	47.437109
4.940000	47.437109
4.950000	47.437109
4.960000	47.437109
4.970000	47.437109
4.980000	47.437109
4.990000	47.437109
5.000000	48.881585
5.010000	48.881585
5.020000	48.881585
5.030000	48.881585
5.040000	48.881585
5.050000	48.881585
5.060000	48.881585
5.070000	48.881585
5.080000	48.881585
5.090000	48.881585
5.100000	48.881585
5.110000	48.881585
5.120000	48.881585
5.130000	48.881585
5.140000	48.881585
5.150000	48.881585
5.160000	48.881585
5.170000	48.881585
5.180000	48.881585
5.190000	48.881585
5.200000	48.881585
5.210000	48.881585
5.220000	48.881585
5.230000	48.881585
5.240000	48.881585
5.250000	48.881585
5.260000	48.881585
5.270000	48.881585
5.280000	48.881585
5.290000	48.881585
5.300000	48.881585
5.310000	48.881585
5.320000	48.881585
5.330000	48.881585
5.340000	48.881585
5.350000	48.881585
5.360000	48.881585
5.370000	48.881585
5.380000	48.881585
5.390000	48.881585
5.400000	48.881585
5.410000	48.881585
5.420000	48.881585
5.430000	48.881585
5.440000	48.881585
5.450000	48.881585
5.460000	48.881585
5.470000	48.881585
5.480000	48.881585
5.490000	48.881585
5.500000	49.873765
5.510000	49.873765
5.520000	49.873765
5.530000	49.873765
5.540000	49.873765
5.550000	49.873765
5.560000	49.873765
5.570000	49.873765
5.580000	49.873765
5.590000	49.873765
5.600000	49.873765
5.610000	49.873765
5.620000	49.873765
5.630000	49.873765
5.640000	49.873765
5.650000	49.873765
5.660000	49.873765
5.670000	49.873765
5.680000	49.873765
5.690000	49.873765
5.700000	49.873765
5.710000	49.873765
5.720000	49.873765
5.730000	49.873765
5.740000	49.873765
5.750000	49.873765
5.760000	49.873765
5.770000	49.873765
5.780000	49.873765
5.790000	49.873765
5.800000	49.873765
5.810000	49.873765
5.820000	49.873765
5.830000	49.873765
5.840000	49.873765
5.850000	49.873765
5.860000	49.873765
5.870000	49.873765
5.880000	49.873765
5.890000	49.873765
5.900000	49.873765
5.910000	49.873765
5.920000	49.873765
5.930000	49.873765
5.940000	49.873765
5.950000	49.873765
5.960000	49.873765
5.970000	49.873765
5.980000	49.873765
5.990000	49.873765
6.000000	50.517515
6.010000	50.517515
6.020000	50.517515
6.030000	50.517515
6.040000	50.517515
6.050000	50.517515
6.060000	50.517515
6.070000	50.517515
6.080000	50.517515
6.090000	50.517515
6.100000	50.517515
6.110000	50.517515
6.120000	50.517515
6.130000	50.517515
6.140000	50.517515
6.150000	50.517515
6.160000	50.517515
6.170000	50.517515
6.180000	50.517515
6.190000	50.517515
6.200000	50.517515
6.210000	50.517515
6.220000	50.517515
6.230000	50.517515
6.240000	50.517515
6.250000	50.517515
6.260000	50.517515
6.270000	50.517515
6.280000	50.517515
6.290000	50.517515
6.300000	50.517515
6.310000	50.517515
6.320000	50.517515
6.330000	50.517515
6.340000	50.517515
6.350000	50.517515
6.360000	50.517515
6.370000	50.517515
6.380000	50.517515
6.390000	50.517515
6.400000	50.517515
6.410000	50.517515
6.420000	50.517515
6.430000	50.517515
6.440000	50.517515
6.450000	50.517515
6.460000	50.517515
6.470000	50.517515
6.480000	50.517515
6.490000	50.517515
6.500000	50.886010
6.510000	50.886010
6.520000	50.886010
6.530000	50.886010
6.540000	50.886010
6.550000	50.886010
6.560000	50.886010
6.570000	50.886010
6.580000	50.886010
6.590000	50.886010
6.600000	50.886010
6.610000	50.886010
6.620000	50.886010
6.630000	50.886010
6.640000	50.886010
6.650000	50.886010
6.660000	50.886010
6.670000	50.886010
6.680000	50.886010
6.690000	50.886010
6.700000	50.886010
6.710000	50.886010
6.720000	50.886010
6.730000	50.886010
6.740000	50.886010
6.750000	50.886010
6.760000	50.886010
6.770000	50.886010
6.780000	50.886010
6.790000	50.886010
6.800000	50.886010
6.810000	50.886010
6.820000	50.886010
6.830000	50.886010
6.840000	50.886010
6.850000	50.886010
6.860000	50.886010
6.870000	50.886010
6.880000	50.886010
6.890000	50.886010
6.900000	50.886010
6.910000	50.886010
6.920000	50.886010
6.930000	50.886010
6.940000	50.886010
6.950000	50.886010
6.960000	50.886010
6.970000	50.886010
6.980000	50.886010
6.990000	50.886010
7.000000	51.037358
7.010000	51.037358
7.020000	51.037358
7.030000	51.037358
7.040000	51.037358
7.050000	51.037358
7.060000	51.037358
7.070000	51.037358
7.080000	51.037358
7.090000	51.037358
7.100000	51.037358
7.110000	51.037358
7.120000	51.037358
7.130000	51.037358
7.140000	51.037358
7.150000	51.037358
7.160000	51.037358
7.170000	51.037358
7.180000	51.037358
7.190000	51.037358
7.200000	51.037358
7.210000	51.037358
7.220000	51.037358
7.230000	51.037358
7.240000	51.037358
7.250000	51.037358
7.260000	51.037358
7.270000	51.037358
7.280000	51.037358
7.290000	51.037358
7.300000	51.037358
7.310000	51.037358
7.320000	51.037358
7.330000	51.037358
7.340000	51.037358
7.350000	51.037358
7.360000	51.037358
7.370000	51.037358
7.380000	51.037358
7.390000	51.037358
7.400000	51.037358
7.410000	51.037358
7.420000	51.037358
7.430000	51.037358
7.440000	51.037358
7.450000	51.037358
7.460000	51.037358
7.470000	51.037358
7.480000	51.037358
7.490000	51.037358
7.500000	51.025229
7.510000	51.025229
7.520000	51.025229
7.530000	51.025229
7.540000	51.025229
7.550000	51.025229
7.560000	51.025229
7.570000	51.025229
7.580000	51.025229
7.590000	51.025229
7.600000	51.025229
7.610000	51.025229
7.620000	51.025229
7.630000	51.025229
7.640000	51.025229
7.650000	51.025229
7.660000	51.025229
7.670000	51.025229
7.680000	51.025229
7.690000	51.025229
7.700000	51.025229
7.710000	51.025229
7.720000	51.025229
7.730000	51.025229
7.740000	51.025229
7.750000	51.025229
7.760000	51.025229
7.770000	51.025229
7.780000	51.025229
7.790000	51.025229
7.800000	51.025229
7.810000	51.025229
7.820000	51.025229
7.830000	51.025229
7.840000	51.025229
7.850000	51.025229
7.860000	51.025229
7.870000	51.025229
7.880000	51.025229
7.890000	51.025229
7.900000	51.025229
7.910000	51.025229
7.920000	51.025229
7.930000	51.025229
7.940000	51.025229
7.950000	51.025229
7.960000	51.025229
7.970000	51.025229
7.980000	51.025229
7.990000	51.025229
8.000000	50.893751
8.010000	50.893751
8.020000	50.893751
8.030000	50.893751
8.040000	50.893751
8.050000	50.893751
8.060000	50.893751
8.070000	50.893751
8.080000	50.893751
8.090000	50.893751
8.100000	50.893751
8.110000	50.893751
8.120000	50.893751
8.130000	50.893751
8.140000	50.893751
8.150000	50.893751
8.160000	50.893751
8.170000	50.893751
8.180000	50.893751
8.190000	50.893751
8.200000	50.893751
8.210000	50.893751
8.220000	50.893751
8.230000	50.893751
8.240000	50.893751
8.250000	50.893751
8.260000	50.893751
8.270000	50.893751
8.280000	50.893751
8.290000	50.893751
8.300000	50.893751
8.310000	50.893751
8.320000	50.893751
8.330000	50.893751
8.340000	50.893751
8.350000	50.893751
8.360000	50.893751
8.370000	50.893751
8.380000	50.893751
8.390000	50.893751
8.400000	50.893751
8.410000	50.893751
8.420000	50.893751
8.430000	50.893751
8.440000	50.893751
8.450000	50.893751
8.460000	50.893751
8.470000	50.893751
8.480000	50.893751
8.490000	50.893751
8.500000	50.673929
8.510000	50.673929
8.520000	50.673929
8.530000	50.673929
8.540000	50.673929
8.550000	50.673929
8.560000	50.673929
8.570000	50.673929
8.580000	50.673929
8.590000	50.673929
8.600000	50.673929
8.610000	50.673929
8.620000	50.673929
8.630000	50.673929
8.640000	50.673929
8.650000	50.673929
8.660000	50.673929
8.670000	50.673929
8.680000	50.673929
8.690000	50.673929
8.700000	50.673929
8.710000	50.673929
8.720000	50.673929
8.730000	50.673929
8.740000	50.673929
8.750000	50.673929
8.760000	50.673929
8.770000	50.673929
8.780000	50.673929
8.790000	50.673929
8.800000	50.673929
8.810000	50.673929
8.820000	50.673929
8.830000	50.673929
8.840000	50.673929
8.850000	50.673929
8.860000	50.673929
8.870000	50.673929
8.880000	50.673929
8.890000	50.673929
8.900000	50.673929
8.910000	50.673929
8.920000	50.673929
8.930000	50.673929
8.940000	50.673929
8.950000	50.673929
8.960000	50.673929
8.970000	50.673929
8.980000	50.673929
8.990000	50.673929
9.000000	50.382246
9.010000	50.382246
9.020000	50.382246
9.030000	50.382246
9.040000	50.382246
9.050000	50.382246
9.060000	50.382246
9.070000	50.382246
9.080000	50.382246
9.090000	50.382246
9.100000	50.382246
9.110000	50.382246
9.120000	50.382246
9.130000	50.382246
9.140000	50.382246
9.150000	50.382246
9.160000	50.382246
9.170000	50.382246
9.180000	50.382246
9.190000	50.382246
9.200000	50.382246
9.210000	50.382246
9.220000	50.382246
9.230000	50.382246
9.240000	50.382246
9.250000	50.382246
9.260000	50.382246
9.270000	50.382246
9.280000	50.382246
9.290000	50.382246
9.300000	50.382246
9.310000	50.382246
9.320000	50.382246
9.330000	50.382246
9.340000	50.382246
9.350000	50.382246
9.360000	50.382246
9.370000	50.382246
9.380000	50.382246
9.390000	50.382246
9.400000	50.382246
9.410000	50.382246
9.420000	50.382246
9.430000	50.382246
9.440000	50.382246
9.450000	50.382246
9.460000	50.382246
9.470000	50.382246
9.480000	50.382246
9.490000	50.382246
9.500000	50.035064
9.510000	50.035064
9.520000	50.035064
9.530000	50.035064
9.540000	50.035064
9.550000	50.035064
9.560000	50.035064
9.570000	50.035064
9.580000	50.035064
9.590000	50.035064
9.600000	50.035064
9.610000	50.035064
9.620000	50.035064
9.630000	50.035064
9.640000	50.035064
9.650000	50.035064
9.660000	50.035064
9.670000	50.035064
9.680000	50.035064
9.690000	50.035064
9.700000	50.035064
9.710000	50.035064
9.720000	50.035064
9.730000	50.035064
9.740000	50.035064
9.750000	50.035064
9.760000	50.035064
