LabVIEW Measurement	
Writer_Version	2
Reader_Version	2
Separator	Tab
Decimal_Separator	.
Multi_Headings	No
X_Columns	One
Time_Pref	Absolute
Operator	biomech-dyno
Date	2023/05/23
Time	16:26:31.1792034999998606061
***End_of_Header***	
	
Channels	1	
Samples	10	
Date	2023/05/23	
Time	17:39:24.7809086999995490467	
X_Dimension	Time	
X0	0.0000000000000000E+0	
Delta_X	0.010000	
***End_of_Header***		
X_Value	Untitled	Comment
0.000000	25.142263
0.010000	25.142263
0.020000	25.142263
0.030000	25.142263
0.040000	25.142263
0.050000	25.142263
0.060000	25.142263
0.070000	25.142263
0.080000	25.142263
0.090000	25.142263
0.100000	25.142263
0.110000	25.142263
0.120000	25.142263
0.130000	25.142263
0.140000	25.142263
0.150000	25.142263
0.160000	25.142263
0.170000	25.142263
0.180000	25.142263
0.190000	25.142263
0.200000	25.142263
0.210000	25.142263
0.220000	25.142263
0.230000	25.142263
0.240000	25.142263
0.250000	25.142263
0.260000	25.142263
0.270000	25.142263
0.280000	25.142263
0.290000	25.142263
0.300000	25.142263
0.310000	25.142263
0.320000	25.142263
0.330000	25.142263
0.340000	25.142263
0.350000	25.142263
0.360000	25.142263
0.370000	25.142263
0.380000	25.142263
0.390000	25.142263
0.400000	25.142263
0.410000	25.142263
0.420000	25.142263
0.430000	25.142263
0.440000	25.142263
0.450000	25.142263
0.460000	25.142263
0.470000	25.142263
0.480000	25.142263
0.490000	25.142263
0.500000	25.191522
0.510000	25.191522
0.520000	25.191522
0.530000	25.191522
0.540000	25.191522
0.550000	25.191522
0.560000	25.191522
0.570000	25.191522
0.580000	25.191522
0.590000	25.191522
0.600000	25.191522
0.610000	25.191522
0.620000	25.191522
0.630000	25.191522
0.640000	25.191522
0.650000	25.191522
0.660000	25.191522
0.670000	25.191522
0.680000	25.191522
0.690000	25.191522
0.700000	25.191522
0.710000	25.191522
0.720000	25.191522
0.730000	25.191522
0.740000	25.191522
0.750000	25.191522
0.760000	25.191522
0.770000	25.191522
0.780000	25.191522
0.790000	25.191522
0.800000	25.191522
0.810000	25.191522
0.820000	25.191522
0.830000	25.191522
0.840000	25.191522
0.850000	25.191522
0.860000	25.191522
0.870000	25.191522
0.880000	25.191522
0.890000	25.191522
0.900000	25.191522
0.910000	25.191522
0.920000	25.191522
0.930000	25.191522
0.940000	25.191522
0.950000	25.191522
0.960000	25.191522
0.970000	25.191522
0.980000	25.191522
0.990000	25.191522
1.000000	25.722888
1.010000	25.722888
1.020000	25.722888
1.030000	25.722888
1.040000	25.722888
1.050000	25.722888
1.060000	25.722888
1.070000	25.722888
1.080000	25.722888
1.090000	25.722888
1.100000	25.722888
1.110000	25.722888
1.120000	25.722888
1.130000	25.722888
1.140000	25.722888
1.150000	25.722888
1.160000	25.722888
1.170000	25.722888
1.180000	25.722888
1.190000	25.722888
1.200000	25.722888
1.210000	25.722888
1.220000	25.722888
1.230000	25.722888
1.240000	25.722888
1.250000	25.722888
1.260000	25.722888
1.270000	25.722888
1.280000	25.722888
1.290000	25.722888
1.300000	25.722888
1.310000	25.722888
1.320000	25.722888
1.330000	25.722888
1.340000	25.722888
1.350000	25.722888
1.360000	25.722888
1.370000	25.722888
1.380000	25.722888
1.390000	25.722888
1.400000	25.722888
1.410000	25.722888
1.420000	25.722888
1.430000	25.722888
1.440000	25.722888
1.450000	25.722888
1.460000	25.722888
1.470000	25.722888
1.480000	25.722888
1.490000	25.722888
1.500000	26.972963
1.510000	26.972963
1.520000	26.972963
1.530000	26.972963
1.540000	26.972963
1.550000	26.972963
1.560000	26.972963
1.570000	26.972963
1.580000	26.972963
1.590000	26.972963
1.600000	26.972963
1.610000	26.972963
1.620000	26.972963
1.630000	26.972963
1.640000	26.972963
1.650000	26.972963
1.660000	26.972963
1.670000	26.972963
1.680000	26.972963
1.690000	26.972963
1.700000	26.972963
1.710000	26.972963
1.720000	26.972963
1.730000	26.972963
1.740000	26.972963
1.750000	26.972963
1.760000	26.972963
1.770000	26.972963
1.780000	26.972963
1.790000	26.972963
1.800000	26.972963
1.810000	26.972963
1.820000	26.972963
1.830000	26.972963
1.840000	26.972963
1.850000	26.972963
1.860000	26.972963
1.870000	26.972963
1.880000	26.972963
1.890000	26.972963
1.900000	26.972963
1.910000	26.972963
1.920000	26.972963
1.930000	26.972963
1.940000	26.972963
1.950000	26.972963
1.960000	26.972963
1.970000	26.972963
1.980000	26.972963
1.990000	26.972963
2.000000	28.827459
2.010000	28.827459
2.020000	28.827459
2.030000	28.827459
2.040000	28.827459
2.050000	28.827459
2.060000	28.827459
2.070000	28.827459
2.080000	28.827459
2.090000	28.827459
2.100000	28.827459
2.110000	28.827459
2.120000	28.827459
2.130000	28.827459
2.140000	28.827459
2.150000	28.827459
2.160000	28.827459
2.170000	28.827459
2.180000	28.827459
2.190000	28.827459
2.200000	28.827459
2.210000	28.827459
2.220000	28.827459
2.230000	28.827459
2.240000	28.827459
2.250000	28.827459
2.260000	28.827459
2.270000	28.827459
2.280000	28.827459
2.290000	28.827459
2.300000	28.827459
2.310000	28.827459
2.320000	28.827459
2.330000	28.827459
2.340000	28.827459
2.350000	28.827459
2.360000	28.827459
2.370000	28.827459
2.380000	28.827459
2.390000	28.827459
2.400000	28.827459
2.410000	28.827459
2.420000	28.827459
2.430000	28.827459
2.440000	28.827459
2.450000	28.827459
2.460000	28.827459
2.470000	28.827459
2.480000	28.827459
2.490000	28.827459
2.500000	31.135670
2.510000	31.135670
2.520000	31.135670
2.530000	31.135670
2.540000	31.135670
2.550000	31.135670
2.560000	31.135670
2.570000	31.135670
2.580000	31.135670
2.590000	31.135670
2.600000	31.135670
2.610000	31.135670
2.620000	31.135670
2.630000	31.135670
2.640000	31.135670
2.650000	31.135670
2.660000	31.135670
2.670000	31.135670
2.680000	31.135670
2.690000	31.135670
2.700000	31.135670
2.710000	31.135670
2.720000	31.135670
2.730000	31.135670
2.740000	31.135670
2.750000	31.135670
2.760000	31.135670
2.770000	31.135670
2.780000	31.135670
2.790000	31.135670
2.800000	31.135670
2.810000	31.135670
2.820000	31.135670
2.830000	31.135670
2.840000	31.135670
2.850000	31.135670
2.860000	31.135670
2.870000	31.135670
2.880000	31.135670
2.890000	31.135670
2.900000	31.135670
2.910000	31.135670
2.920000	31.135670
2.930000	31.135670
2.940000	31.135670
2.950000	31.135670
2.960000	31.135670
2.970000	31.135670
2.980000	31.135670
2.990000	31.135670
3.000000	33.790854
3.010000	33.790854
3.020000	33.790854
3.030000	33.790854
3.040000	33.790854
3.050000	33.790854
3.060000	33.790854
3.070000	33.790854
3.080000	33.790854
3.090000	33.790854
3.100000	33.790854
3.110000	33.790854
3.120000	33.790854
3.130000	33.790854
3.140000	33.790854
3.150000	33.790854
3.160000	33.790854
3.170000	33.790854
3.180000	33.790854
3.190000	33.790854
3.200000	33.790854
3.210000	33.790854
3.220000	33.790854
3.230000	33.790854
3.240000	33.790854
3.250000	33.790854
3.260000	33.790854
3.270000	33.790854
3.280000	33.790854
3.290000	33.790854
3.300000	33.790854
3.310000	33.790854
3.320000	33.790854
3.330000	33.790854
3.340000	33.790854
3.350000	33.790854
3.360000	33.790854
3.370000	33.790854
3.380000	33.790854
3.390000	33.790854
3.400000	33.790854
3.410000	33.790854
3.420000	33.790854
3.430000	33.790854
3.440000	33.790854
3.450000	33.790854
3.460000	33.790854
3.470000	33.790854
3.480000	33.790854
3.490000	33.790854
3.500000	36.620463
3.510000	36.620463
3.520000	36.620463
3.530000	36.620463
3.540000	36.620463
3.550000	36.620463
3.560000	36.620463
3.570000	36.620463
3.580000	36.620463
3.590000	36.620463
3.600000	36.620463
3.610000	36.620463
3.620000	36.620463
3.630000	36.620463
3.640000	36.620463
3.650000	36.620463
3.660000	36.620463
3.670000	36.620463
3.680000	36.620463
3.690000	36.620463
3.700000	36.620463
3.710000	36.620463
3.720000	36.620463
3.730000	36.620463
3.740000	36.620463
3.750000	36.620463
3.760000	36.620463
3.770000	36.620463
3.780000	36.620463
3.790000	36.620463
3.800000	36.620463
3.810000	36.620463
3.820000	36.620463
3.830000	36.620463
3.840000	36.620463
3.850000	36.620463
3.860000	36.620463
3.870000	36.620463
3.880000	36.620463
3.890000	36.620463
3.900000	36.620463
3.910000	36.620463
3.920000	36.620463
3.930000	36.620463
3.940000	36.620463
3.950000	36.620463
3.960000	36.620463
3.970000	36.620463
3.980000	36.620463
3.990000	36.620463
4.000000	39.030503
4.010000	39.030503
4.020000	39.030503
4.030000	39.030503
4.040000	39.030503
4.050000	39.030503
4.060000	39.030503
4.070000	39.030503
4.080000	39.030503
4.090000	39.030503
4.100000	39.030503
4.110000	39.030503
4.120000	39.030503
4.130000	39.030503
4.140000	39.030503
4.150000	39.030503
4.160000	39.030503
4.170000	39.030503
4.180000	39.030503
4.190000	39.030503
4.200000	39.030503
4.210000	39.030503
4.220000	39.030503
4.230000	39.030503
4.240000	39.030503
4.250000	39.030503
4.260000	39.030503
4.270000	39.030503
4.280000	39.030503
4.290000	39.030503
4.300000	39.030503
4.310000	39.030503
4.320000	39.030503
4.330000	39.030503
4.340000	39.030503
4.350000	39.030503
4.360000	39.030503
4.370000	39.030503
4.380000	39.030503
4.390000	39.030503
4.400000	39.030503
4.410000	39.030503
4.420000	39.030503
4.430000	39.030503
4.440000	39.030503
4.450000	39.030503
4.460000	39.030503
4.470000	39.030503
4.480000	39.030503
4.490000	39.030503
4.500000	40.843738
4.510000	40.843738
4.520000	40.843738
4.530000	40.843738
4.540000	40.843738
4.550000	40.843738
4.560000	40.843738
4.570000	40.843738
4.580000	40.843738
4.590000	40.843738
4.600000	40.843738
4.610000	40.843738
4.620000	40.843738
4.630000	40.843738
4.640000	40.843738
4.650000	40.843738
4.660000	40.843738
4.670000	40.843738
4.680000	40.843738
4.690000	40.843738
4.700000	40.843738
4.710000	40.843738
4.720000	40.843738
4.730000	40.843738
4.740000	40.843738
4.750000	40.843738
4.760000	40.843738
4.770000	40.843738
4.780000	40.843738
4.790000	40.843738
4.800000	40.843738
4.810000	40.843738
4.820000	40.843738
4.830000	40.843738
4.840000	40.843738
4.850000	40.843738
4.860000	40.843738
4.870000	40.843738
4.880000	40.843738
4.890000	40.843738
4.900000	40.843738
4.910000	40.843738
4.920000	40.843738
4.930000	40.843738
4.940000	40.843738
4.950000	40.843738
4.960000	40.843738
4.970000	40.843738
4.980000	40.843738
4.990000	40.843738
5.000000	42.131226
5.010000	42.131226
5.020000	42.131226
5.030000	42.131226
5.040000	42.131226
5.050000	42.131226
5.060000	42.131226
5.070000	42.131226
5.080000	42.131226
5.090000	42.131226
5.100000	42.131226
5.110000	42.131226
5.120000	42.131226
5.130000	42.131226
5.140000	42.131226
5.150000	42.131226
5.160000	42.131226
5.170000	42.131226
5.180000	42.131226
5.190000	42.131226
5.200000	42.131226
5.210000	42.131226
5.220000	42.131226
5.230000	42.131226
5.240000	42.131226
5.250000	42.131226
5.260000	42.131226
5.270000	42.131226
5.280000	42.131226
5.290000	42.131226
5.300000	42.131226
5.310000	42.131226
5.320000	42.131226
5.330000	42.131226
5.340000	42.131226
5.350000	42.131226
5.360000	42.131226
5.370000	42.131226
5.380000	42.131226
5.390000	42.131226
5.400000	42.131226
5.410000	42.131226
5.420000	42.131226
5.430000	42.131226
5.440000	42.131226
5.450000	42.131226
5.460000	42.131226
5.470000	42.131226
5.480000	42.131226
5.490000	42.131226
5.500000	43.020248
5.510000	43.020248
5.520000	43.020248
5.530000	43.020248
5.540000	43.020248
5.550000	43.020248
5.560000	43.020248
5.570000	43.020248
5.580000	43.020248
5.590000	43.020248
5.600000	43.020248
5.610000	43.020248
5.620000	43.020248
5.630000	43.020248
5.640000	43.020248
5.650000	43.020248
5.660000	43.020248
5.670000	43.020248
5.680000	43.020248
5.690000	43.020248
5.700000	43.020248
5.710000	43.020248
5.720000	43.020248
5.730000	43.020248
5.740000	43.020248
5.750000	43.020248
5.760000	43.020248
5.770000	43.020248
5.780000	43.020248
5.790000	43.020248
5.800000	43.020248
5.810000	43.020248
5.820000	43.020248
5.830000	43.020248
5.840000	43.020248
5.850000	43.020248
5.860000	43.020248
5.870000	43.020248
5.880000	43.020248
5.890000	43.020248
5.900000	43.020248
5.910000	43.020248
5.920000	43.020248
5.930000	43.020248
5.940000	43.020248
5.950000	43.020248
5.960000	43.020248
5.970000	43.020248
5.980000	43.020248
5.990000	43.020248
6.000000	43.596638
6.010000	43.596638
6.020000	43.596638
6.030000	43.596638
6.040000	43.596638
6.050000	43.596638
6.060000	43.596638
6.070000	43.596638
6.080000	43.596638
6.090000	43.596638
6.100000	43.596638
6.110000	43.596638
6.120000	43.596638
6.130000	43.596638
6.140000	43.596638
6.150000	43.596638
6.160000	43.596638
6.170000	43.596638
6.180000	43.596638
6.190000	43.596638
6.200000	43.596638
6.210000	43.596638
6.220000	43.596638
6.230000	43.596638
6.240000	43.596638
6.250000	43.596638
6.260000	43.596638
6.270000	43.596638
6.280000	43.596638
6.290000	43.596638
6.300000	43.596638
6.310000	43.596638
6.320000	43.596638
6.330000	43.596638
6.340000	43.596638
6.350000	43.596638
6.360000	43.596638
6.370000	43.596638
6.380000	43.596638
6.390000	43.596638
6.400000	43.596638
6.410000	43.596638
6.420000	43.596638
6.430000	43.596638
6.440000	43.596638
6.450000	43.596638
6.460000	43.596638
6.470000	43.596638
6.480000	43.596638
6.490000	43.596638
6.500000	43.940977
6.510000	43.940977
6.520000	43.940977
6.530000	43.940977
6.540000	43.940977
6.550000	43.940977
6.560000	43.940977
6.570000	43.940977
6.580000	43.940977
6.590000	43.940977
6.600000	43.940977
6.610000	43.940977
6.620000	43.940977
6.630000	43.940977
6.640000	43.940977
6.650000	43.940977
6.660000	43.940977
6.670000	43.940977
6.680000	43.940977
6.690000	43.940977
6.700000	43.940977
6.710000	43.940977
6.720000	43.940977
6.730000	43.940977
6.740000	43.940977
6.750000	43.940977
6.760000	43.940977
6.770000	43.940977
6.780000	43.940977
6.790000	43.940977
6.800000	43.940977
6.810000	43.940977
6.820000	43.940977
6.830000	43.940977
6.840000	43.940977
6.850000	43.940977
6.860000	43.940977
6.870000	43.940977
6.880000	43.940977
6.890000	43.940977
6.900000	43.940977
6.910000	43.940977
6.920000	43.940977
6.930000	43.940977
6.940000	43.940977
6.950000	43.940977
6.960000	43.940977
6.970000	43.940977
6.980000	43.940977
6.990000	43.940977
7.000000	44.109521
7.010000	44.109521
7.020000	44.109521
7.030000	44.109521
7.040000	44.109521
7.050000	44.109521
7.060000	44.109521
7.070000	44.109521
7.080000	44.109521
7.090000	44.109521
7.100000	44.109521
7.110000	44.109521
7.120000	44.109521
7.130000	44.109521
7.140000	44.109521
7.150000	44.109521
7.160000	44.109521
7.170000	44.109521
7.180000	44.109521
7.190000	44.109521
7.200000	44.109521
7.210000	44.109521
7.220000	44.109521
7.230000	44.109521
7.240000	44.109521
7.250000	44.109521
7.260000	44.109521
7.270000	44.109521
7.280000	44.109521
7.290000	44.109521
7.300000	44.109521
7.310000	44.109521
7.320000	44.109521
7.330000	44.109521
7.340000	44.109521
7.350000	44.109521
7.360000	44.109521
7.370000	44.109521
7.380000	44.109521
7.390000	44.109521
7.400000	44.109521
7.410000	44.109521
7.420000	44.109521
7.430000	44.109521
7.440000	44.109521
7.450000	44.109521
7.460000	44.109521
7.470000	44.109521
7.480000	44.109521
7.490000	44.109521
7.500000	44.149968
7.510000	44.149968
7.520000	44.149968
7.530000	44.149968
7.540000	44.149968
7.550000	44.149968
7.560000	44.149968
7.570000	44.149968
7.580000	44.149968
7.590000	44.149968
7.600000	44.149968
7.610000	44.149968
7.620000	44.149968
7.630000	44.149968
7.640000	44.149968
7.650000	44.149968
7.660000	44.149968
7.670000	44.149968
7.680000	44.149968
7.690000	44.149968
7.700000	44.149968
7.710000	44.149968
7.720000	44.149968
7.730000	44.149968
7.740000	44.149968
7.750000	44.149968
7.760000	44.149968
7.770000	44.149968
7.780000	44.149968
7.790000	44.149968
7.800000	44.149968
7.810000	44.149968
7.820000	44.149968
7.830000	44.149968
7.840000	44.149968
7.850000	44.149968
7.860000	44.149968
7.870000	44.149968
7.880000	44.149968
7.890000	44.149968
7.900000	44.149968
7.910000	44.149968
7.920000	44.149968
7.930000	44.149968
7.940000	44.149968
7.950000	44.149968
7.960000	44.149968
7.970000	44.149968
7.980000	44.149968
7.990000	44.149968
8.000000	44.090717
8.010000	44.090717
8.020000	44.090717
8.030000	44.090717
8.040000	44.090717
8.050000	44.090717
8.060000	44.090717
8.070000	44.090717
8.080000	44.090717
8.090000	44.090717
8.100000	44.090717
8.110000	44.090717
8.120000	44.090717
8.130000	44.090717
8.140000	44.090717
8.150000	44.090717
8.160000	44.090717
8.170000	44.090717
8.180000	44.090717
8.190000	44.090717
8.200000	44.090717
8.210000	44.090717
8.220000	44.090717
8.230000	44.090717
8.240000	44.090717
8.250000	44.090717
8.260000	44.090717
8.270000	44.090717
8.280000	44.090717
8.290000	44.090717
8.300000	44.090717
8.310000	44.090717
8.320000	44.090717
8.330000	44.090717
8.340000	44.090717
8.350000	44.090717
8.360000	44.090717
8.370000	44.090717
8.380000	44.090717
8.390000	44.090717
8.400000	44.090717
8.410000	44.090717
8.420000	44.090717
8.430000	44.090717
8.440000	44.090717
8.450000	44.090717
8.460000	44.090717
8.470000	44.090717
8.480000	44.090717
8.490000	44.090717
8.500000	43.948859
8.510000	43.948859
8.520000	43.948859
8.530000	43.948859
8.540000	43.948859
8.550000	43.948859
8.560000	43.948859
8.570000	43.948859
8.580000	43.948859
8.590000	43.948859
8.600000	43.948859
8.610000	43.948859
8.620000	43.948859
8.630000	43.948859
8.640000	43.948859
8.650000	43.948859
8.660000	43.948859
8.670000	43.948859
8.680000	43.948859
8.690000	43.948859
8.700000	43.948859
8.710000	43.948859
8.720000	43.948859
8.730000	43.948859
8.740000	43.948859
8.750000	43.948859
8.760000	43.948859
8.770000	43.948859
8.780000	43.948859
8.790000	43.948859
8.800000	43.948859
8.810000	43.948859
8.820000	43.948859
8.830000	43.948859
8.840000	43.948859
8.850000	43.948859
8.860000	43.948859
8.870000	43.948859
8.880000	43.948859
8.890000	43.948859
8.900000	43.948859
8.910000	43.948859
8.920000	43.948859
8.930000	43.948859
8.940000	43.948859
8.950000	43.948859
8.960000	43.948859
8.970000	43.948859
8.980000	43.948859
8.990000	43.948859
9.000000	43.737993
9.010000	43.737993
9.020000	43.737993
9.030000	43.737993
9.040000	43.737993
9.050000	43.737993
9.060000	43.737993
9.070000	43.737993
9.080000	43.737993
9.090000	43.737993
9.100000	43.737993
9.110000	43.737993
9.120000	43.737993
9.130000	43.737993
9.140000	43.737993
9.150000	43.737993
9.160000	43.737993
9.170000	43.737993
9.180000	43.737993
9.190000	43.737993
9.200000	43.737993
9.210000	43.737993
9.220000	43.737993
9.230000	43.737993
9.240000	43.737993
9.250000	43.737993
9.260000	43.737993
9.270000	43.737993
9.280000	43.737993
9.290000	43.737993
9.300000	43.737993
9.310000	43.737993
9.320000	43.737993
9.330000	43.737993
9.340000	43.737993
9.350000	43.737993
9.360000	43.737993
9.370000	43.737993
9.380000	43.737993
9.390000	43.737993
9.400000	43.737993
9.410000	43.737993
9.420000	43.737993
9.430000	43.737993
9.440000	43.737993
9.450000	43.737993
9.460000	43.737993
9.470000	43.737993
9.480000	43.737993
9.490000	43.737993
9.500000	43.492884
9.510000	43.492884
9.520000	43.492884
9.530000	43.492884
9.540000	43.492884
9.550000	43.492884
9.560000	43.492884
9.570000	43.492884
9.580000	43.492884
9.590000	43.492884
9.600000	43.492884
9.610000	43.492884
9.620000	43.492884
9.630000	43.492884
9.640000	43.492884
9.650000	43.492884
9.660000	43.492884
9.670000	43.492884
9.680000	43.492884
9.690000	43.492884
9.700000	43.492884
9.710000	43.492884
9.720000	43.492884
9.730000	43.492884
9.740000	43.492884
9.750000	43.492884
9.760000	43.492884
