LabVIEW Measurement	
Writer_Version	2
Reader_Version	2
Separator	Tab
Decimal_Separator	.
Multi_Headings	No
X_Columns	One
Time_Pref	Absolute
Operator	biomech-dyno
Date	2023/05/23
Time	16:26:31.1792034999998606061
***End_of_Header***	
	
Channels	1	
Samples	10	
Date	2023/05/23	
Time	17:36:39.2811564999998078155	
X_Dimension	Time	
X0	0.0000000000000000E+0	
Delta_X	0.010000	
***End_of_Header***		
X_Value	Untitled	Comment
0.000000	25.063155
0.010000	25.063155
0.020000	25.063155
0.030000	25.063155
0.040000	25.063155
0.050000	25.063155
0.060000	25.063155
0.070000	25.063155
0.080000	25.063155
0.090000	25.063155
0.100000	25.063155
0.110000	25.063155
0.120000	25.063155
0.130000	25.063155
0.140000	25.063155
0.150000	25.063155
0.160000	25.063155
0.170000	25.063155
0.180000	25.063155
0.190000	25.063155
0.200000	25.063155
0.210000	25.063155
0.220000	25.063155
0.230000	25.063155
0.240000	25.063155
0.250000	25.063155
0.260000	25.063155
0.270000	25.063155
0.280000	25.063155
0.290000	25.063155
0.300000	25.063155
0.310000	25.063155
0.320000	25.063155
0.330000	25.063155
0.340000	25.063155
0.350000	25.063155
0.360000	25.063155
0.370000	25.063155
0.380000	25.063155
0.390000	25.063155
0.400000	25.063155
0.410000	25.063155
0.420000	25.063155
0.430000	25.063155
0.440000	25.063155
0.450000	25.063155
0.460000	25.063155
0.470000	25.063155
0.480000	25.063155
0.490000	25.063155
0.500000	25.096880
0.510000	25.096880
0.520000	25.096880
0.530000	25.096880
0.540000	25.096880
0.550000	25.096880
0.560000	25.096880
0.570000	25.096880
0.580000	25.096880
0.590000	25.096880
0.600000	25.096880
0.610000	25.096880
0.620000	25.096880
0.630000	25.096880
0.640000	25.096880
0.650000	25.096880
0.660000	25.096880
0.670000	25.096880
0.680000	25.096880
0.690000	25.096880
0.700000	25.096880
0.710000	25.096880
0.720000	25.096880
0.730000	25.096880
0.740000	25.096880
0.750000	25.096880
0.760000	25.096880
0.770000	25.096880
0.780000	25.096880
0.790000	25.096880
0.800000	25.096880
0.810000	25.096880
0.820000	25.096880
0.830000	25.096880
0.840000	25.096880
0.850000	25.096880
0.860000	25.096880
0.870000	25.096880
0.880000	25.096880
0.890000	25.096880
0.900000	25.096880
0.910000	25.096880
0.920000	25.096880
0.930000	25.096880
0.940000	25.096880
0.950000	25.096880
0.960000	25.096880
0.970000	25.096880
0.980000	25.096880
0.990000	25.096880
1.000000	25.419918
1.010000	25.419918
1.020000	25.419918
1.030000	25.419918
1.040000	25.419918
1.050000	25.419918
1.060000	25.419918
1.070000	25.419918
1.080000	25.419918
1.090000	25.419918
1.100000	25.419918
1.110000	25.419918
1.120000	25.419918
1.130000	25.419918
1.140000	25.419918
1.150000	25.419918
1.160000	25.419918
1.170000	25.419918
1.180000	25.419918
1.190000	25.419918
1.200000	25.419918
1.210000	25.419918
1.220000	25.419918
1.230000	25.419918
1.240000	25.419918
1.250000	25.419918
1.260000	25.419918
1.270000	25.419918
1.280000	25.419918
1.290000	25.419918
1.300000	25.419918
1.310000	25.419918
1.320000	25.419918
1.330000	25.419918
1.340000	25.419918
1.350000	25.419918
1.360000	25.419918
1.370000	25.419918
1.380000	25.419918
1.390000	25.419918
1.400000	25.419918
1.410000	25.419918
1.420000	25.419918
1.430000	25.419918
1.440000	25.419918
1.450000	25.419918
1.460000	25.419918
1.470000	25.419918
1.480000	25.419918
1.490000	25.419918
1.500000	26.175263
1.510000	26.175263
1.520000	26.175263
1.530000	26.175263
1.540000	26.175263
1.550000	26.175263
1.560000	26.175263
1.570000	26.175263
1.580000	26.175263
1.590000	26.175263
1.600000	26.175263
1.610000	26.175263
1.620000	26.175263
1.630000	26.175263
1.640000	26.175263
1.650000	26.175263
1.660000	26.175263
1.670000	26.175263
1.680000	26.175263
1.690000	26.175263
1.700000	26.175263
1.710000	26.175263
1.720000	26.175263
1.730000	26.175263
1.740000	26.175263
1.750000	26.175263
1.760000	26.175263
1.770000	26.175263
1.780000	26.175263
1.790000	26.175263
1.800000	26.175263
1.810000	26.175263
1.820000	26.175263
1.830000	26.175263
1.840000	26.175263
1.850000	26.175263
1.860000	26.175263
1.870000	26.175263
1.880000	26.175263
1.890000	26.175263
1.900000	26.175263
1.910000	26.175263
1.920000	26.175263
1.930000	26.175263
1.940000	26.175263
1.950000	26.175263
1.960000	26.175263
1.970000	26.175263
1.980000	26.175263
1.990000	26.175263
2.000000	27.283899
2.010000	27.283899
2.020000	27.283899
2.030000	27.283899
2.040000	27.283899
2.050000	27.283899
2.060000	27.283899
2.070000	27.283899
2.080000	27.283899
2.090000	27.283899
2.100000	27.283899
2.110000	27.283899
2.120000	27.283899
2.130000	27.283899
2.140000	27.283899
2.150000	27.283899
2.160000	27.283899
2.170000	27.283899
2.180000	27.283899
2.190000	27.283899
2.200000	27.283899
2.210000	27.283899
2.220000	27.283899
2.230000	27.283899
2.240000	27.283899
2.250000	27.283899
2.260000	27.283899
2.270000	27.283899
2.280000	27.283899
2.290000	27.283899
2.300000	27.283899
2.310000	27.283899
2.320000	27.283899
2.330000	27.283899
2.340000	27.283899
2.350000	27.283899
2.360000	27.283899
2.370000	27.283899
2.380000	27.283899
2.390000	27.283899
2.400000	27.283899
2.410000	27.283899
2.420000	27.283899
2.430000	27.283899
2.440000	27.283899
2.450000	27.283899
2.460000	27.283899
2.470000	27.283899
2.480000	27.283899
2.490000	27.283899
2.500000	28.658595
2.510000	28.658595
2.520000	28.658595
2.530000	28.658595
2.540000	28.658595
2.550000	28.658595
2.560000	28.658595
2.570000	28.658595
2.580000	28.658595
2.590000	28.658595
2.600000	28.658595
2.610000	28.658595
2.620000	28.658595
2.630000	28.658595
2.640000	28.658595
2.650000	28.658595
2.660000	28.658595
2.670000	28.658595
2.680000	28.658595
2.690000	28.658595
2.700000	28.658595
2.710000	28.658595
2.720000	28.658595
2.730000	28.658595
2.740000	28.658595
2.750000	28.658595
2.760000	28.658595
2.770000	28.658595
2.780000	28.658595
2.790000	28.658595
2.800000	28.658595
2.810000	28.658595
2.820000	28.658595
2.830000	28.658595
2.840000	28.658595
2.850000	28.658595
2.860000	28.658595
2.870000	28.658595
2.880000	28.658595
2.890000	28.658595
2.900000	28.658595
2.910000	28.658595
2.920000	28.658595
2.930000	28.658595
2.940000	28.658595
2.950000	28.658595
2.960000	28.658595
2.970000	28.658595
2.980000	28.658595
2.990000	28.658595
3.000000	30.231058
3.010000	30.231058
3.020000	30.231058
3.030000	30.231058
3.040000	30.231058
3.050000	30.231058
3.060000	30.231058
3.070000	30.231058
3.080000	30.231058
3.090000	30.231058
3.100000	30.231058
3.110000	30.231058
3.120000	30.231058
3.130000	30.231058
3.140000	30.231058
3.150000	30.231058
3.160000	30.231058
3.170000	30.231058
3.180000	30.231058
3.190000	30.231058
3.200000	30.231058
3.210000	30.231058
3.220000	30.231058
3.230000	30.231058
3.240000	30.231058
3.250000	30.231058
3.260000	30.231058
3.270000	30.231058
3.280000	30.231058
3.290000	30.231058
3.300000	30.231058
3.310000	30.231058
3.320000	30.231058
3.330000	30.231058
3.340000	30.231058
3.350000	30.231058
3.360000	30.231058
3.370000	30.231058
3.380000	30.231058
3.390000	30.231058
3.400000	30.231058
3.410000	30.231058
3.420000	30.231058
3.430000	30.231058
3.440000	30.231058
3.450000	30.231058
3.460000	30.231058
3.470000	30.231058
3.480000	30.231058
3.490000	30.231058
3.500000	31.874063
3.510000	31.874063
3.520000	31.874063
3.530000	31.874063
3.540000	31.874063
3.550000	31.874063
3.560000	31.874063
3.570000	31.874063
3.580000	31.874063
3.590000	31.874063
3.600000	31.874063
3.610000	31.874063
3.620000	31.874063
3.630000	31.874063
3.640000	31.874063
3.650000	31.874063
3.660000	31.874063
3.670000	31.874063
3.680000	31.874063
3.690000	31.874063
3.700000	31.874063
3.710000	31.874063
3.720000	31.874063
3.730000	31.874063
3.740000	31.874063
3.750000	31.874063
3.760000	31.874063
3.770000	31.874063
3.780000	31.874063
3.790000	31.874063
3.800000	31.874063
3.810000	31.874063
3.820000	31.874063
3.830000	31.874063
3.840000	31.874063
3.850000	31.874063
3.860000	31.874063
3.870000	31.874063
3.880000	31.874063
3.890000	31.874063
3.900000	31.874063
3.910000	31.874063
3.920000	31.874063
3.930000	31.874063
3.940000	31.874063
3.950000	31.874063
3.960000	31.874063
3.970000	31.874063
3.980000	31.874063
3.990000	31.874063
4.000000	33.243972
4.010000	33.243972
4.020000	33.243972
4.030000	33.243972
4.040000	33.243972
4.050000	33.243972
4.060000	33.243972
4.070000	33.243972
4.080000	33.243972
4.090000	33.243972
4.100000	33.243972
4.110000	33.243972
4.120000	33.243972
4.130000	33.243972
4.140000	33.243972
4.150000	33.243972
4.160000	33.243972
4.170000	33.243972
4.180000	33.243972
4.190000	33.243972
4.200000	33.243972
4.210000	33.243972
4.220000	33.243972
4.230000	33.243972
4.240000	33.243972
4.250000	33.243972
4.260000	33.243972
4.270000	33.243972
4.280000	33.243972
4.290000	33.243972
4.300000	33.243972
4.310000	33.243972
4.320000	33.243972
4.330000	33.243972
4.340000	33.243972
4.350000	33.243972
4.360000	33.243972
4.370000	33.243972
4.380000	33.243972
4.390000	33.243972
4.400000	33.243972
4.410000	33.243972
4.420000	33.243972
4.430000	33.243972
4.440000	33.243972
4.450000	33.243972
4.460000	33.243972
4.470000	33.243972
4.480000	33.243972
4.490000	33.243972
4.500000	34.257313
4.510000	34.257313
4.520000	34.257313
4.530000	34.257313
4.540000	34.257313
4.550000	34.257313
4.560000	34.257313
4.570000	34.257313
4.580000	34.257313
4.590000	34.257313
4.600000	34.257313
4.610000	34.257313
4.620000	34.257313
4.630000	34.257313
4.640000	34.257313
4.650000	34.257313
4.660000	34.257313
4.670000	34.257313
4.680000	34.257313
4.690000	34.257313
4.700000	34.257313
4.710000	34.257313
4.720000	34.257313
4.730000	34.257313
4.740000	34.257313
4.750000	34.257313
4.760000	34.257313
4.770000	34.257313
4.780000	34.257313
4.790000	34.257313
4.800000	34.257313
4.810000	34.257313
4.820000	34.257313
4.830000	34.257313
4.840000	34.257313
4.850000	34.257313
4.860000	34.257313
4.870000	34.257313
4.880000	34.257313
4.890000	34.257313
4.900000	34.257313
4.910000	34.257313
4.920000	34.257313
4.930000	34.257313
4.940000	34.257313
4.950000	34.257313
4.960000	34.257313
4.970000	34.257313
4.980000	34.257313
4.990000	34.257313
5.000000	34.974503
5.010000	34.974503
5.020000	34.974503
5.030000	34.974503
5.040000	34.974503
5.050000	34.974503
5.060000	34.974503
5.070000	34.974503
5.080000	34.974503
5.090000	34.974503
5.100000	34.974503
5.110000	34.974503
5.120000	34.974503
5.130000	34.974503
5.140000	34.974503
5.150000	34.974503
5.160000	34.974503
5.170000	34.974503
5.180000	34.974503
5.190000	34.974503
5.200000	34.974503
5.210000	34.974503
5.220000	34.974503
5.230000	34.974503
5.240000	34.974503
5.250000	34.974503
5.260000	34.974503
5.270000	34.974503
5.280000	34.974503
5.290000	34.974503
5.300000	34.974503
5.310000	34.974503
5.320000	34.974503
5.330000	34.974503
5.340000	34.974503
5.350000	34.974503
5.360000	34.974503
5.370000	34.974503
5.380000	34.974503
5.390000	34.974503
5.400000	34.974503
5.410000	34.974503
5.420000	34.974503
5.430000	34.974503
5.440000	34.974503
5.450000	34.974503
5.460000	34.974503
5.470000	34.974503
5.480000	34.974503
5.490000	34.974503
5.500000	35.469375
5.510000	35.469375
5.520000	35.469375
5.530000	35.469375
5.540000	35.469375
5.550000	35.469375
5.560000	35.469375
5.570000	35.469375
5.580000	35.469375
5.590000	35.469375
5.600000	35.469375
5.610000	35.469375
5.620000	35.469375
5.630000	35.469375
5.640000	35.469375
5.650000	35.469375
5.660000	35.469375
5.670000	35.469375
5.680000	35.469375
5.690000	35.469375
5.700000	35.469375
5.710000	35.469375
5.720000	35.469375
5.730000	35.469375
5.740000	35.469375
5.750000	35.469375
5.760000	35.469375
5.770000	35.469375
5.780000	35.469375
5.790000	35.469375
5.800000	35.469375
5.810000	35.469375
5.820000	35.469375
5.830000	35.469375
5.840000	35.469375
5.850000	35.469375
5.860000	35.469375
5.870000	35.469375
5.880000	35.469375
5.890000	35.469375
5.900000	35.469375
5.910000	35.469375
5.920000	35.469375
5.930000	35.469375
5.940000	35.469375
5.950000	35.469375
5.960000	35.469375
5.970000	35.469375
5.980000	35.469375
5.990000	35.469375
6.000000	35.788661
6.010000	35.788661
6.020000	35.788661
6.030000	35.788661
6.040000	35.788661
6.050000	35.788661
6.060000	35.788661
6.070000	35.788661
6.080000	35.788661
6.090000	35.788661
6.100000	35.788661
6.110000	35.788661
6.120000	35.788661
6.130000	35.788661
6.140000	35.788661
6.150000	35.788661
6.160000	35.788661
6.170000	35.788661
6.180000	35.788661
6.190000	35.788661
6.200000	35.788661
6.210000	35.788661
6.220000	35.788661
6.230000	35.788661
6.240000	35.788661
6.250000	35.788661
6.260000	35.788661
6.270000	35.788661
6.280000	35.788661
6.290000	35.788661
6.300000	35.788661
6.310000	35.788661
6.320000	35.788661
6.330000	35.788661
6.340000	35.788661
6.350000	35.788661
6.360000	35.788661
6.370000	35.788661
6.380000	35.788661
6.390000	35.788661
6.400000	35.788661
6.410000	35.788661
6.420000	35.788661
6.430000	35.788661
6.440000	35.788661
6.450000	35.788661
6.460000	35.788661
6.470000	35.788661
6.480000	35.788661
6.490000	35.788661
6.500000	35.970693
6.510000	35.970693
6.520000	35.970693
6.530000	35.970693
6.540000	35.970693
6.550000	35.970693
6.560000	35.970693
6.570000	35.970693
6.580000	35.970693
6.590000	35.970693
6.600000	35.970693
6.610000	35.970693
6.620000	35.970693
6.630000	35.970693
6.640000	35.970693
6.650000	35.970693
6.660000	35.970693
6.670000	35.970693
6.680000	35.970693
6.690000	35.970693
6.700000	35.970693
6.710000	35.970693
6.720000	35.970693
6.730000	35.970693
6.740000	35.970693
6.750000	35.970693
6.760000	35.970693
6.770000	35.970693
6.780000	35.970693
6.790000	35.970693
6.800000	35.970693
6.810000	35.970693
6.820000	35.970693
6.830000	35.970693
6.840000	35.970693
6.850000	35.970693
6.860000	35.970693
6.870000	35.970693
6.880000	35.970693
6.890000	35.970693
6.900000	35.970693
6.910000	35.970693
6.920000	35.970693
6.930000	35.970693
6.940000	35.970693
6.950000	35.970693
6.960000	35.970693
6.970000	35.970693
6.980000	35.970693
6.990000	35.970693
7.000000	36.049035
7.010000	36.049035
7.020000	36.049035
7.030000	36.049035
7.040000	36.049035
7.050000	36.049035
7.060000	36.049035
7.070000	36.049035
7.080000	36.049035
7.090000	36.049035
7.100000	36.049035
7.110000	36.049035
7.120000	36.049035
7.130000	36.049035
7.140000	36.049035
7.150000	36.049035
7.160000	36.049035
7.170000	36.049035
7.180000	36.049035
7.190000	36.049035
7.200000	36.049035
7.210000	36.049035
7.220000	36.049035
7.230000	36.049035
7.240000	36.049035
7.250000	36.049035
7.260000	36.049035
7.270000	36.049035
7.280000	36.049035
7.290000	36.049035
7.300000	36.049035
7.310000	36.049035
7.320000	36.049035
7.330000	36.049035
7.340000	36.049035
7.350000	36.049035
7.360000	36.049035
7.370000	36.049035
7.380000	36.049035
7.390000	36.049035
7.400000	36.049035
7.410000	36.049035
7.420000	36.049035
7.430000	36.049035
7.440000	36.049035
7.450000	36.049035
7.460000	36.049035
7.470000	36.049035
7.480000	36.049035
7.490000	36.049035
7.500000	36.053668
7.510000	36.053668
7.520000	36.053668
7.530000	36.053668
7.540000	36.053668
7.550000	36.053668
7.560000	36.053668
7.570000	36.053668
7.580000	36.053668
7.590000	36.053668
7.600000	36.053668
7.610000	36.053668
7.620000	36.053668
7.630000	36.053668
7.640000	36.053668
7.650000	36.053668
7.660000	36.053668
7.670000	36.053668
7.680000	36.053668
7.690000	36.053668
7.700000	36.053668
7.710000	36.053668
7.720000	36.053668
7.730000	36.053668
7.740000	36.053668
7.750000	36.053668
7.760000	36.053668
7.770000	36.053668
7.780000	36.053668
7.790000	36.053668
7.800000	36.053668
7.810000	36.053668
7.820000	36.053668
7.830000	36.053668
7.840000	36.053668
7.850000	36.053668
7.860000	36.053668
7.870000	36.053668
7.880000	36.053668
7.890000	36.053668
7.900000	36.053668
7.910000	36.053668
7.920000	36.053668
7.930000	36.053668
7.940000	36.053668
7.950000	36.053668
7.960000	36.053668
7.970000	36.053668
7.980000	36.053668
7.990000	36.053668
8.000000	36.003567
8.010000	36.003567
8.020000	36.003567
8.030000	36.003567
8.040000	36.003567
8.050000	36.003567
8.060000	36.003567
8.070000	36.003567
8.080000	36.003567
8.090000	36.003567
8.100000	36.003567
8.110000	36.003567
8.120000	36.003567
8.130000	36.003567
8.140000	36.003567
8.150000	36.003567
8.160000	36.003567
8.170000	36.003567
8.180000	36.003567
8.190000	36.003567
8.200000	36.003567
8.210000	36.003567
8.220000	36.003567
8.230000	36.003567
8.240000	36.003567
8.250000	36.003567
8.260000	36.003567
8.270000	36.003567
8.280000	36.003567
8.290000	36.003567
8.300000	36.003567
8.310000	36.003567
8.320000	36.003567
8.330000	36.003567
8.340000	36.003567
8.350000	36.003567
8.360000	36.003567
8.370000	36.003567
8.380000	36.003567
8.390000	36.003567
8.400000	36.003567
8.410000	36.003567
8.420000	36.003567
8.430000	36.003567
8.440000	36.003567
8.450000	36.003567
8.460000	36.003567
8.470000	36.003567
8.480000	36.003567
8.490000	36.003567
8.500000	35.908322
8.510000	35.908322
8.520000	35.908322
8.530000	35.908322
8.540000	35.908322
8.550000	35.908322
8.560000	35.908322
8.570000	35.908322
8.580000	35.908322
8.590000	35.908322
8.600000	35.908322
8.610000	35.908322
8.620000	35.908322
8.630000	35.908322
8.640000	35.908322
8.650000	35.908322
8.660000	35.908322
8.670000	35.908322
8.680000	35.908322
8.690000	35.908322
8.700000	35.908322
8.710000	35.908322
8.720000	35.908322
8.730000	35.908322
8.740000	35.908322
8.750000	35.908322
8.760000	35.908322
8.770000	35.908322
8.780000	35.908322
8.790000	35.908322
8.800000	35.908322
8.810000	35.908322
8.820000	35.908322
8.830000	35.908322
8.840000	35.908322
8.850000	35.908322
8.860000	35.908322
8.870000	35.908322
8.880000	35.908322
8.890000	35.908322
8.900000	35.908322
8.910000	35.908322
8.920000	35.908322
8.930000	35.908322
8.940000	35.908322
8.950000	35.908322
8.960000	35.908322
8.970000	35.908322
8.980000	35.908322
8.990000	35.908322
9.000000	35.778593
9.010000	35.778593
9.020000	35.778593
9.030000	35.778593
9.040000	35.778593
9.050000	35.778593
9.060000	35.778593
9.070000	35.778593
9.080000	35.778593
9.090000	35.778593
9.100000	35.778593
9.110000	35.778593
9.120000	35.778593
9.130000	35.778593
9.140000	35.778593
9.150000	35.778593
9.160000	35.778593
9.170000	35.778593
9.180000	35.778593
9.190000	35.778593
9.200000	35.778593
9.210000	35.778593
9.220000	35.778593
9.230000	35.778593
9.240000	35.778593
9.250000	35.778593
9.260000	35.778593
9.270000	35.778593
9.280000	35.778593
9.290000	35.778593
9.300000	35.778593
9.310000	35.778593
9.320000	35.778593
9.330000	35.778593
9.340000	35.778593
9.350000	35.778593
9.360000	35.778593
9.370000	35.778593
9.380000	35.778593
9.390000	35.778593
9.400000	35.778593
9.410000	35.778593
9.420000	35.778593
9.430000	35.778593
9.440000	35.778593
9.450000	35.778593
9.460000	35.778593
9.470000	35.778593
9.480000	35.778593
9.490000	35.778593
9.500000	35.623749
9.510000	35.623749
9.520000	35.623749
9.530000	35.623749
9.540000	35.623749
9.550000	35.623749
9.560000	35.623749
9.570000	35.623749
9.580000	35.623749
9.590000	35.623749
9.600000	35.623749
9.610000	35.623749
9.620000	35.623749
9.630000	35.623749
9.640000	35.623749
9.650000	35.623749
9.660000	35.623749
9.670000	35.623749
9.680000	35.623749
9.690000	35.623749
9.700000	35.623749
9.710000	35.623749
9.720000	35.623749
9.730000	35.623749
9.740000	35.623749
9.750000	35.623749
9.760000	35.623749
