LabVIEW Measurement	
Writer_Version	2
Reader_Version	2
Separator	Tab
Decimal_Separator	.
Multi_Headings	No
X_Columns	One
Time_Pref	Absolute
Operator	biomech-dyno
Date	2023/05/23
Time	16:26:31.1792034999998606061
***End_of_Header***	
	
Channels	1	
Samples	10	
Date	2023/05/23	
Time	17:50:49.4008926999997458168	
X_Dimension	Time	
X0	0.0000000000000000E+0	
Delta_X	0.010000	
***End_of_Header***		
X_Value	Untitled	Comment
0.000000	25.082845
0.010000	25.082845
0.020000	25.082845
0.030000	25.082845
0.040000	25.082845
0.050000	25.082845
0.060000	25.082845
0.070000	25.082845
0.080000	25.082845
0.090000	25.082845
0.100000	25.082845
0.110000	25.082845
0.120000	25.082845
0.130000	25.082845
0.140000	25.082845
0.150000	25.082845
0.160000	25.082845
0.170000	25.082845
0.180000	25.082845
0.190000	25.082845
0.200000	25.082845
0.210000	25.082845
0.220000	25.082845
0.230000	25.082845
0.240000	25.082845
0.250000	25.082845
0.260000	25.082845
0.270000	25.082845
0.280000	25.082845
0.290000	25.082845
0.300000	25.082845
0.310000	25.082845
0.320000	25.082845
0.330000	25.082845
0.340000	25.082845
0.350000	25.082845
0.360000	25.082845
0.370000	25.082845
0.380000	25.082845
0.390000	25.082845
0.400000	25.082845
0.410000	25.082845
0.420000	25.082845
0.430000	25.082845
0.440000	25.082845
0.450000	25.082845
0.460000	25.082845
0.470000	25.082845
0.480000	25.082845
0.490000	25.082845
0.500000	25.124920
0.510000	25.124920
0.520000	25.124920
0.530000	25.124920
0.540000	25.124920
0.550000	25.124920
0.560000	25.124920
0.570000	25.124920
0.580000	25.124920
0.590000	25.124920
0.600000	25.124920
0.610000	25.124920
0.620000	25.124920
0.630000	25.124920
0.640000	25.124920
0.650000	25.124920
0.660000	25.124920
0.670000	25.124920
0.680000	25.124920
0.690000	25.124920
0.700000	25.124920
0.710000	25.124920
0.720000	25.124920
0.730000	25.124920
0.740000	25.124920
0.750000	25.124920
0.760000	25.124920
0.770000	25.124920
0.780000	25.124920
0.790000	25.124920
0.800000	25.124920
0.810000	25.124920
0.820000	25.124920
0.830000	25.124920
0.840000	25.124920
0.850000	25.124920
0.860000	25.124920
0.870000	25.124920
0.880000	25.124920
0.890000	25.124920
0.900000	25.124920
0.910000	25.124920
0.920000	25.124920
0.930000	25.124920
0.940000	25.124920
0.950000	25.124920
0.960000	25.124920
0.970000	25.124920
0.980000	25.124920
0.990000	25.124920
1.000000	25.555401
1.010000	25.555401
1.020000	25.555401
1.030000	25.555401
1.040000	25.555401
1.050000	25.555401
1.060000	25.555401
1.070000	25.555401
1.080000	25.555401
1.090000	25.555401
1.100000	25.555401
1.110000	25.555401
1.120000	25.555401
1.130000	25.555401
1.140000	25.555401
1.150000	25.555401
1.160000	25.555401
1.170000	25.555401
1.180000	25.555401
1.190000	25.555401
1.200000	25.555401
1.210000	25.555401
1.220000	25.555401
1.230000	25.555401
1.240000	25.555401
1.250000	25.555401
1.260000	25.555401
1.270000	25.555401
1.280000	25.555401
1.290000	25.555401
1.300000	25.555401
1.310000	25.555401
1.320000	25.555401
1.330000	25.555401
1.340000	25.555401
1.350000	25.555401
1.360000	25.555401
1.370000	25.555401
1.380000	25.555401
1.390000	25.555401
1.400000	25.555401
1.410000	25.555401
1.420000	25.555401
1.430000	25.555401
1.440000	25.555401
1.450000	25.555401
1.460000	25.555401
1.470000	25.555401
1.480000	25.555401
1.490000	25.555401
1.500000	26.564355
1.510000	26.564355
1.520000	26.564355
1.530000	26.564355
1.540000	26.564355
1.550000	26.564355
1.560000	26.564355
1.570000	26.564355
1.580000	26.564355
1.590000	26.564355
1.600000	26.564355
1.610000	26.564355
1.620000	26.564355
1.630000	26.564355
1.640000	26.564355
1.650000	26.564355
1.660000	26.564355
1.670000	26.564355
1.680000	26.564355
1.690000	26.564355
1.700000	26.564355
1.710000	26.564355
1.720000	26.564355
1.730000	26.564355
1.740000	26.564355
1.750000	26.564355
1.760000	26.564355
1.770000	26.564355
1.780000	26.564355
1.790000	26.564355
1.800000	26.564355
1.810000	26.564355
1.820000	26.564355
1.830000	26.564355
1.840000	26.564355
1.850000	26.564355
1.860000	26.564355
1.870000	26.564355
1.880000	26.564355
1.890000	26.564355
1.900000	26.564355
1.910000	26.564355
1.920000	26.564355
1.930000	26.564355
1.940000	26.564355
1.950000	26.564355
1.960000	26.564355
1.970000	26.564355
1.980000	26.564355
1.990000	26.564355
2.000000	28.047104
2.010000	28.047104
2.020000	28.047104
2.030000	28.047104
2.040000	28.047104
2.050000	28.047104
2.060000	28.047104
2.070000	28.047104
2.080000	28.047104
2.090000	28.047104
2.100000	28.047104
2.110000	28.047104
2.120000	28.047104
2.130000	28.047104
2.140000	28.047104
2.150000	28.047104
2.160000	28.047104
2.170000	28.047104
2.180000	28.047104
2.190000	28.047104
2.200000	28.047104
2.210000	28.047104
2.220000	28.047104
2.230000	28.047104
2.240000	28.047104
2.250000	28.047104
2.260000	28.047104
2.270000	28.047104
2.280000	28.047104
2.290000	28.047104
2.300000	28.047104
2.310000	28.047104
2.320000	28.047104
2.330000	28.047104
2.340000	28.047104
2.350000	28.047104
2.360000	28.047104
2.370000	28.047104
2.380000	28.047104
2.390000	28.047104
2.400000	28.047104
2.410000	28.047104
2.420000	28.047104
2.430000	28.047104
2.440000	28.047104
2.450000	28.047104
2.460000	28.047104
2.470000	28.047104
2.480000	28.047104
2.490000	28.047104
2.500000	29.892907
2.510000	29.892907
2.520000	29.892907
2.530000	29.892907
2.540000	29.892907
2.550000	29.892907
2.560000	29.892907
2.570000	29.892907
2.580000	29.892907
2.590000	29.892907
2.600000	29.892907
2.610000	29.892907
2.620000	29.892907
2.630000	29.892907
2.640000	29.892907
2.650000	29.892907
2.660000	29.892907
2.670000	29.892907
2.680000	29.892907
2.690000	29.892907
2.700000	29.892907
2.710000	29.892907
2.720000	29.892907
2.730000	29.892907
2.740000	29.892907
2.750000	29.892907
2.760000	29.892907
2.770000	29.892907
2.780000	29.892907
2.790000	29.892907
2.800000	29.892907
2.810000	29.892907
2.820000	29.892907
2.830000	29.892907
2.840000	29.892907
2.850000	29.892907
2.860000	29.892907
2.870000	29.892907
2.880000	29.892907
2.890000	29.892907
2.900000	29.892907
2.910000	29.892907
2.920000	29.892907
2.930000	29.892907
2.940000	29.892907
2.950000	29.892907
2.960000	29.892907
2.970000	29.892907
2.980000	29.892907
2.990000	29.892907
3.000000	32.018054
3.010000	32.018054
3.020000	32.018054
3.030000	32.018054
3.040000	32.018054
3.050000	32.018054
3.060000	32.018054
3.070000	32.018054
3.080000	32.018054
3.090000	32.018054
3.100000	32.018054
3.110000	32.018054
3.120000	32.018054
3.130000	32.018054
3.140000	32.018054
3.150000	32.018054
3.160000	32.018054
3.170000	32.018054
3.180000	32.018054
3.190000	32.018054
3.200000	32.018054
3.210000	32.018054
3.220000	32.018054
3.230000	32.018054
3.240000	32.018054
3.250000	32.018054
3.260000	32.018054
3.270000	32.018054
3.280000	32.018054
3.290000	32.018054
3.300000	32.018054
3.310000	32.018054
3.320000	32.018054
3.330000	32.018054
3.340000	32.018054
3.350000	32.018054
3.360000	32.018054
3.370000	32.018054
3.380000	32.018054
3.390000	32.018054
3.400000	32.018054
3.410000	32.018054
3.420000	32.018054
3.430000	32.018054
3.440000	32.018054
3.450000	32.018054
3.460000	32.018054
3.470000	32.018054
3.480000	32.018054
3.490000	32.018054
3.500000	34.304128
3.510000	34.304128
3.520000	34.304128
3.530000	34.304128
3.540000	34.304128
3.550000	34.304128
3.560000	34.304128
3.570000	34.304128
3.580000	34.304128
3.590000	34.304128
3.600000	34.304128
3.610000	34.304128
3.620000	34.304128
3.630000	34.304128
3.640000	34.304128
3.650000	34.304128
3.660000	34.304128
3.670000	34.304128
3.680000	34.304128
3.690000	34.304128
3.700000	34.304128
3.710000	34.304128
3.720000	34.304128
3.730000	34.304128
3.740000	34.304128
3.750000	34.304128
3.760000	34.304128
3.770000	34.304128
3.780000	34.304128
3.790000	34.304128
3.800000	34.304128
3.810000	34.304128
3.820000	34.304128
3.830000	34.304128
3.840000	34.304128
3.850000	34.304128
3.860000	34.304128
3.870000	34.304128
3.880000	34.304128
3.890000	34.304128
3.900000	34.304128
3.910000	34.304128
3.920000	34.304128
3.930000	34.304128
3.940000	34.304128
3.950000	34.304128
3.960000	34.304128
3.970000	34.304128
3.980000	34.304128
3.990000	34.304128
4.000000	36.313201
4.010000	36.313201
4.020000	36.313201
4.030000	36.313201
4.040000	36.313201
4.050000	36.313201
4.060000	36.313201
4.070000	36.313201
4.080000	36.313201
4.090000	36.313201
4.100000	36.313201
4.110000	36.313201
4.120000	36.313201
4.130000	36.313201
4.140000	36.313201
4.150000	36.313201
4.160000	36.313201
4.170000	36.313201
4.180000	36.313201
4.190000	36.313201
4.200000	36.313201
4.210000	36.313201
4.220000	36.313201
4.230000	36.313201
4.240000	36.313201
4.250000	36.313201
4.260000	36.313201
4.270000	36.313201
4.280000	36.313201
4.290000	36.313201
4.300000	36.313201
4.310000	36.313201
4.320000	36.313201
4.330000	36.313201
4.340000	36.313201
4.350000	36.313201
4.360000	36.313201
4.370000	36.313201
4.380000	36.313201
4.390000	36.313201
4.400000	36.313201
4.410000	36.313201
4.420000	36.313201
4.430000	36.313201
4.440000	36.313201
4.450000	36.313201
4.460000	36.313201
4.470000	36.313201
4.480000	36.313201
4.490000	36.313201
4.500000	37.831572
4.510000	37.831572
4.520000	37.831572
4.530000	37.831572
4.540000	37.831572
4.550000	37.831572
4.560000	37.831572
4.570000	37.831572
4.580000	37.831572
4.590000	37.831572
4.600000	37.831572
4.610000	37.831572
4.620000	37.831572
4.630000	37.831572
4.640000	37.831572
4.650000	37.831572
4.660000	37.831572
4.670000	37.831572
4.680000	37.831572
4.690000	37.831572
4.700000	37.831572
4.710000	37.831572
4.720000	37.831572
4.730000	37.831572
4.740000	37.831572
4.750000	37.831572
4.760000	37.831572
4.770000	37.831572
4.780000	37.831572
4.790000	37.831572
4.800000	37.831572
4.810000	37.831572
4.820000	37.831572
4.830000	37.831572
4.840000	37.831572
4.850000	37.831572
4.860000	37.831572
4.870000	37.831572
4.880000	37.831572
4.890000	37.831572
4.900000	37.831572
4.910000	37.831572
4.920000	37.831572
4.930000	37.831572
4.940000	37.831572
4.950000	37.831572
4.960000	37.831572
4.970000	37.831572
4.980000	37.831572
4.990000	37.831572
5.000000	38.916949
5.010000	38.916949
5.020000	38.916949
5.030000	38.916949
5.040000	38.916949
5.050000	38.916949
5.060000	38.916949
5.070000	38.916949
5.080000	38.916949
5.090000	38.916949
5.100000	38.916949
5.110000	38.916949
5.120000	38.916949
5.130000	38.916949
5.140000	38.916949
5.150000	38.916949
5.160000	38.916949
5.170000	38.916949
5.180000	38.916949
5.190000	38.916949
5.200000	38.916949
5.210000	38.916949
5.220000	38.916949
5.230000	38.916949
5.240000	38.916949
5.250000	38.916949
5.260000	38.916949
5.270000	38.916949
5.280000	38.916949
5.290000	38.916949
5.300000	38.916949
5.310000	38.916949
5.320000	38.916949
5.330000	38.916949
5.340000	38.916949
5.350000	38.916949
5.360000	38.916949
5.370000	38.916949
5.380000	38.916949
5.390000	38.916949
5.400000	38.916949
5.410000	38.916949
5.420000	38.916949
5.430000	38.916949
5.440000	38.916949
5.450000	38.916949
5.460000	38.916949
5.470000	38.916949
5.480000	38.916949
5.490000	38.916949
5.500000	39.671642
5.510000	39.671642
5.520000	39.671642
5.530000	39.671642
5.540000	39.671642
5.550000	39.671642
5.560000	39.671642
5.570000	39.671642
5.580000	39.671642
5.590000	39.671642
5.600000	39.671642
5.610000	39.671642
5.620000	39.671642
5.630000	39.671642
5.640000	39.671642
5.650000	39.671642
5.660000	39.671642
5.670000	39.671642
5.680000	39.671642
5.690000	39.671642
5.700000	39.671642
5.710000	39.671642
5.720000	39.671642
5.730000	39.671642
5.740000	39.671642
5.750000	39.671642
5.760000	39.671642
5.770000	39.671642
5.780000	39.671642
5.790000	39.671642
5.800000	39.671642
5.810000	39.671642
5.820000	39.671642
5.830000	39.671642
5.840000	39.671642
5.850000	39.671642
5.860000	39.671642
5.870000	39.671642
5.880000	39.671642
5.890000	39.671642
5.900000	39.671642
5.910000	39.671642
5.920000	39.671642
5.930000	39.671642
5.940000	39.671642
5.950000	39.671642
5.960000	39.671642
5.970000	39.671642
5.980000	39.671642
5.990000	39.671642
6.000000	40.163205
6.010000	40.163205
6.020000	40.163205
6.030000	40.163205
6.040000	40.163205
6.050000	40.163205
6.060000	40.163205
6.070000	40.163205
6.080000	40.163205
6.090000	40.163205
6.100000	40.163205
6.110000	40.163205
6.120000	40.163205
6.130000	40.163205
6.140000	40.163205
6.150000	40.163205
6.160000	40.163205
6.170000	40.163205
6.180000	40.163205
6.190000	40.163205
6.200000	40.163205
6.210000	40.163205
6.220000	40.163205
6.230000	40.163205
6.240000	40.163205
6.250000	40.163205
6.260000	40.163205
6.270000	40.163205
6.280000	40.163205
6.290000	40.163205
6.300000	40.163205
6.310000	40.163205
6.320000	40.163205
6.330000	40.163205
6.340000	40.163205
6.350000	40.163205
6.360000	40.163205
6.370000	40.163205
6.380000	40.163205
6.390000	40.163205
6.400000	40.163205
6.410000	40.163205
6.420000	40.163205
6.430000	40.163205
6.440000	40.163205
6.450000	40.163205
6.460000	40.163205
6.470000	40.163205
6.480000	40.163205
6.490000	40.163205
6.500000	40.460528
6.510000	40.460528
6.520000	40.460528
6.530000	40.460528
6.540000	40.460528
6.550000	40.460528
6.560000	40.460528
6.570000	40.460528
6.580000	40.460528
6.590000	40.460528
6.600000	40.460528
6.610000	40.460528
6.620000	40.460528
6.630000	40.460528
6.640000	40.460528
6.650000	40.460528
6.660000	40.460528
6.670000	40.460528
6.680000	40.460528
6.690000	40.460528
6.700000	40.460528
6.710000	40.460528
6.720000	40.460528
6.730000	40.460528
6.740000	40.460528
6.750000	40.460528
6.760000	40.460528
6.770000	40.460528
6.780000	40.460528
6.790000	40.460528
6.800000	40.460528
6.810000	40.460528
6.820000	40.460528
6.830000	40.460528
6.840000	40.460528
6.850000	40.460528
6.860000	40.460528
6.870000	40.460528
6.880000	40.460528
6.890000	40.460528
6.900000	40.460528
6.910000	40.460528
6.920000	40.460528
6.930000	40.460528
6.940000	40.460528
6.950000	40.460528
6.960000	40.460528
6.970000	40.460528
6.980000	40.460528
6.990000	40.460528
7.000000	40.612302
7.010000	40.612302
7.020000	40.612302
7.030000	40.612302
7.040000	40.612302
7.050000	40.612302
7.060000	40.612302
7.070000	40.612302
7.080000	40.612302
7.090000	40.612302
7.100000	40.612302
7.110000	40.612302
7.120000	40.612302
7.130000	40.612302
7.140000	40.612302
7.150000	40.612302
7.160000	40.612302
7.170000	40.612302
7.180000	40.612302
7.190000	40.612302
7.200000	40.612302
7.210000	40.612302
7.220000	40.612302
7.230000	40.612302
7.240000	40.612302
7.250000	40.612302
7.260000	40.612302
7.270000	40.612302
7.280000	40.612302
7.290000	40.612302
7.300000	40.612302
7.310000	40.612302
7.320000	40.612302
7.330000	40.612302
7.340000	40.612302
7.350000	40.612302
7.360000	40.612302
7.370000	40.612302
7.380000	40.612302
7.390000	40.612302
7.400000	40.612302
7.410000	40.612302
7.420000	40.612302
7.430000	40.612302
7.440000	40.612302
7.450000	40.612302
7.460000	40.612302
7.470000	40.612302
7.480000	40.612302
7.490000	40.612302
7.500000	40.650263
7.510000	40.650263
7.520000	40.650263
7.530000	40.650263
7.540000	40.650263
7.550000	40.650263
7.560000	40.650263
7.570000	40.650263
7.580000	40.650263
7.590000	40.650263
7.600000	40.650263
7.610000	40.650263
7.620000	40.650263
7.630000	40.650263
7.640000	40.650263
7.650000	40.650263
7.660000	40.650263
7.670000	40.650263
7.680000	40.650263
7.690000	40.650263
7.700000	40.650263
7.710000	40.650263
7.720000	40.650263
7.730000	40.650263
7.740000	40.650263
7.750000	40.650263
7.760000	40.650263
7.770000	40.650263
7.780000	40.650263
7.790000	40.650263
7.800000	40.650263
7.810000	40.650263
7.820000	40.650263
7.830000	40.650263
7.840000	40.650263
7.850000	40.650263
7.860000	40.650263
7.870000	40.650263
7.880000	40.650263
7.890000	40.650263
7.900000	40.650263
7.910000	40.650263
7.920000	40.650263
7.930000	40.650263
7.940000	40.650263
7.950000	40.650263
7.960000	40.650263
7.970000	40.650263
7.980000	40.650263
7.990000	40.650263
8.000000	40.602260
8.010000	40.602260
8.020000	40.602260
8.030000	40.602260
8.040000	40.602260
8.050000	40.602260
8.060000	40.602260
8.070000	40.602260
8.080000	40.602260
8.090000	40.602260
8.100000	40.602260
8.110000	40.602260
8.120000	40.602260
8.130000	40.602260
8.140000	40.602260
8.150000	40.602260
8.160000	40.602260
8.170000	40.602260
8.180000	40.602260
8.190000	40.602260
8.200000	40.602260
8.210000	40.602260
8.220000	40.602260
8.230000	40.602260
8.240000	40.602260
8.250000	40.602260
8.260000	40.602260
8.270000	40.602260
8.280000	40.602260
8.290000	40.602260
8.300000	40.602260
8.310000	40.602260
8.320000	40.602260
8.330000	40.602260
8.340000	40.602260
8.350000	40.602260
8.360000	40.602260
8.370000	40.602260
8.380000	40.602260
8.390000	40.602260
8.400000	40.602260
8.410000	40.602260
8.420000	40.602260
8.430000	40.602260
8.440000	40.602260
8.450000	40.602260
8.460000	40.602260
8.470000	40.602260
8.480000	40.602260
8.490000	40.602260
8.500000	40.489709
8.510000	40.489709
8.520000	40.489709
8.530000	40.489709
8.540000	40.489709
8.550000	40.489709
8.560000	40.489709
8.570000	40.489709
8.580000	40.489709
8.590000	40.489709
8.600000	40.489709
8.610000	40.489709
8.620000	40.489709
8.630000	40.489709
8.640000	40.489709
8.650000	40.489709
8.660000	40.489709
8.670000	40.489709
8.680000	40.489709
8.690000	40.489709
8.700000	40.489709
8.710000	40.489709
8.720000	40.489709
8.730000	40.489709
8.740000	40.489709
8.750000	40.489709
8.760000	40.489709
8.770000	40.489709
8.780000	40.489709
8.790000	40.489709
8.800000	40.489709
8.810000	40.489709
8.820000	40.489709
8.830000	40.489709
8.840000	40.489709
8.850000	40.489709
8.860000	40.489709
8.870000	40.489709
8.880000	40.489709
8.890000	40.489709
8.900000	40.489709
8.910000	40.489709
8.920000	40.489709
8.930000	40.489709
8.940000	40.489709
8.950000	40.489709
8.960000	40.489709
8.970000	40.489709
8.980000	40.489709
8.990000	40.489709
9.000000	40.325795
9.010000	40.325795
9.020000	40.325795
9.030000	40.325795
9.040000	40.325795
9.050000	40.325795
9.060000	40.325795
9.070000	40.325795
9.080000	40.325795
9.090000	40.325795
9.100000	40.325795
9.110000	40.325795
9.120000	40.325795
9.130000	40.325795
9.140000	40.325795
9.150000	40.325795
9.160000	40.325795
9.170000	40.325795
9.180000	40.325795
9.190000	40.325795
9.200000	40.325795
9.210000	40.325795
9.220000	40.325795
9.230000	40.325795
9.240000	40.325795
9.250000	40.325795
9.260000	40.325795
9.270000	40.325795
9.280000	40.325795
9.290000	40.325795
9.300000	40.325795
9.310000	40.325795
9.320000	40.325795
9.330000	40.325795
9.340000	40.325795
9.350000	40.325795
9.360000	40.325795
9.370000	40.325795
9.380000	40.325795
9.390000	40.325795
9.400000	40.325795
9.410000	40.325795
9.420000	40.325795
9.430000	40.325795
9.440000	40.325795
9.450000	40.325795
9.460000	40.325795
9.470000	40.325795
9.480000	40.325795
9.490000	40.325795
9.500000	40.123743
9.510000	40.123743
9.520000	40.123743
9.530000	40.123743
9.540000	40.123743
9.550000	40.123743
9.560000	40.123743
9.570000	40.123743
9.580000	40.123743
9.590000	40.123743
9.600000	40.123743
9.610000	40.123743
9.620000	40.123743
9.630000	40.123743
9.640000	40.123743
9.650000	40.123743
9.660000	40.123743
9.670000	40.123743
9.680000	40.123743
9.690000	40.123743
9.700000	40.123743
9.710000	40.123743
9.720000	40.123743
9.730000	40.123743
9.740000	40.123743
9.750000	40.123743
9.760000	40.123743
