LabVIEW Measurement	
Writer_Version	2
Reader_Version	2
Separator	Tab
Decimal_Separator	.
Multi_Headings	No
X_Columns	One
Time_Pref	Absolute
Operator	biomech-dyno
Date	2023/05/23
Time	16:26:31.1792034999998606061
***End_of_Header***	
	
Channels	1	
Samples	10	
Date	2023/05/23	
Time	18:06:58.7994042999995394698	
X_Dimension	Time	
X0	0.0000000000000000E+0	
Delta_X	0.010000	
***End_of_Header***		
X_Value	Untitled	Comment
0.000000	25.146598
0.010000	25.146598
0.020000	25.146598
0.030000	25.146598
0.040000	25.146598
0.050000	25.146598
0.060000	25.146598
0.070000	25.146598
0.080000	25.146598
0.090000	25.146598
0.100000	25.146598
0.110000	25.146598
0.120000	25.146598
0.130000	25.146598
0.140000	25.146598
0.150000	25.146598
0.160000	25.146598
0.170000	25.146598
0.180000	25.146598
0.190000	25.146598
0.200000	25.146598
0.210000	25.146598
0.220000	25.146598
0.230000	25.146598
0.240000	25.146598
0.250000	25.146598
0.260000	25.146598
0.270000	25.146598
0.280000	25.146598
0.290000	25.146598
0.300000	25.146598
0.310000	25.146598
0.320000	25.146598
0.330000	25.146598
0.340000	25.146598
0.350000	25.146598
0.360000	25.146598
0.370000	25.146598
0.380000	25.146598
0.390000	25.146598
0.400000	25.146598
0.410000	25.146598
0.420000	25.146598
0.430000	25.146598
0.440000	25.146598
0.450000	25.146598
0.460000	25.146598
0.470000	25.146598
0.480000	25.146598
0.490000	25.146598
0.500000	25.213238
0.510000	25.213238
0.520000	25.213238
0.530000	25.213238
0.540000	25.213238
0.550000	25.213238
0.560000	25.213238
0.570000	25.213238
0.580000	25.213238
0.590000	25.213238
0.600000	25.213238
0.610000	25.213238
0.620000	25.213238
0.630000	25.213238
0.640000	25.213238
0.650000	25.213238
0.660000	25.213238
0.670000	25.213238
0.680000	25.213238
0.690000	25.213238
0.700000	25.213238
0.710000	25.213238
0.720000	25.213238
0.730000	25.213238
0.740000	25.213238
0.750000	25.213238
0.760000	25.213238
0.770000	25.213238
0.780000	25.213238
0.790000	25.213238
0.800000	25.213238
0.810000	25.213238
0.820000	25.213238
0.830000	25.213238
0.840000	25.213238
0.850000	25.213238
0.860000	25.213238
0.870000	25.213238
0.880000	25.213238
0.890000	25.213238
0.900000	25.213238
0.910000	25.213238
0.920000	25.213238
0.930000	25.213238
0.940000	25.213238
0.950000	25.213238
0.960000	25.213238
0.970000	25.213238
0.980000	25.213238
0.990000	25.213238
1.000000	25.901610
1.010000	25.901610
1.020000	25.901610
1.030000	25.901610
1.040000	25.901610
1.050000	25.901610
1.060000	25.901610
1.070000	25.901610
1.080000	25.901610
1.090000	25.901610
1.100000	25.901610
1.110000	25.901610
1.120000	25.901610
1.130000	25.901610
1.140000	25.901610
1.150000	25.901610
1.160000	25.901610
1.170000	25.901610
1.180000	25.901610
1.190000	25.901610
1.200000	25.901610
1.210000	25.901610
1.220000	25.901610
1.230000	25.901610
1.240000	25.901610
1.250000	25.901610
1.260000	25.901610
1.270000	25.901610
1.280000	25.901610
1.290000	25.901610
1.300000	25.901610
1.310000	25.901610
1.320000	25.901610
1.330000	25.901610
1.340000	25.901610
1.350000	25.901610
1.360000	25.901610
1.370000	25.901610
1.380000	25.901610
1.390000	25.901610
1.400000	25.901610
1.410000	25.901610
1.420000	25.901610
1.430000	25.901610
1.440000	25.901610
1.450000	25.901610
1.460000	25.901610
1.470000	25.901610
1.480000	25.901610
1.490000	25.901610
1.500000	27.520420
1.510000	27.520420
1.520000	27.520420
1.530000	27.520420
1.540000	27.520420
1.550000	27.520420
1.560000	27.520420
1.570000	27.520420
1.580000	27.520420
1.590000	27.520420
1.600000	27.520420
1.610000	27.520420
1.620000	27.520420
1.630000	27.520420
1.640000	27.520420
1.650000	27.520420
1.660000	27.520420
1.670000	27.520420
1.680000	27.520420
1.690000	27.520420
1.700000	27.520420
1.710000	27.520420
1.720000	27.520420
1.730000	27.520420
1.740000	27.520420
1.750000	27.520420
1.760000	27.520420
1.770000	27.520420
1.780000	27.520420
1.790000	27.520420
1.800000	27.520420
1.810000	27.520420
1.820000	27.520420
1.830000	27.520420
1.840000	27.520420
1.850000	27.520420
1.860000	27.520420
1.870000	27.520420
1.880000	27.520420
1.890000	27.520420
1.900000	27.520420
1.910000	27.520420
1.920000	27.520420
1.930000	27.520420
1.940000	27.520420
1.950000	27.520420
1.960000	27.520420
1.970000	27.520420
1.980000	27.520420
1.990000	27.520420
2.000000	29.914889
2.010000	29.914889
2.020000	29.914889
2.030000	29.914889
2.040000	29.914889
2.050000	29.914889
2.060000	29.914889
2.070000	29.914889
2.080000	29.914889
2.090000	29.914889
2.100000	29.914889
2.110000	29.914889
2.120000	29.914889
2.130000	29.914889
2.140000	29.914889
2.150000	29.914889
2.160000	29.914889
2.170000	29.914889
2.180000	29.914889
2.190000	29.914889
2.200000	29.914889
2.210000	29.914889
2.220000	29.914889
2.230000	29.914889
2.240000	29.914889
2.250000	29.914889
2.260000	29.914889
2.270000	29.914889
2.280000	29.914889
2.290000	29.914889
2.300000	29.914889
2.310000	29.914889
2.320000	29.914889
2.330000	29.914889
2.340000	29.914889
2.350000	29.914889
2.360000	29.914889
2.370000	29.914889
2.380000	29.914889
2.390000	29.914889
2.400000	29.914889
2.410000	29.914889
2.420000	29.914889
2.430000	29.914889
2.440000	29.914889
2.450000	29.914889
2.460000	29.914889
2.470000	29.914889
2.480000	29.914889
2.490000	29.914889
2.500000	32.904328
2.510000	32.904328
2.520000	32.904328
2.530000	32.904328
2.540000	32.904328
2.550000	32.904328
2.560000	32.904328
2.570000	32.904328
2.580000	32.904328
2.590000	32.904328
2.600000	32.904328
2.610000	32.904328
2.620000	32.904328
2.630000	32.904328
2.640000	32.904328
2.650000	32.904328
2.660000	32.904328
2.670000	32.904328
2.680000	32.904328
2.690000	32.904328
2.700000	32.904328
2.710000	32.904328
2.720000	32.904328
2.730000	32.904328
2.740000	32.904328
2.750000	32.904328
2.760000	32.904328
2.770000	32.904328
2.780000	32.904328
2.790000	32.904328
2.800000	32.904328
2.810000	32.904328
2.820000	32.904328
2.830000	32.904328
2.840000	32.904328
2.850000	32.904328
2.860000	32.904328
2.870000	32.904328
2.880000	32.904328
2.890000	32.904328
2.900000	32.904328
2.910000	32.904328
2.920000	32.904328
2.930000	32.904328
2.940000	32.904328
2.950000	32.904328
2.960000	32.904328
2.970000	32.904328
2.980000	32.904328
2.990000	32.904328
3.000000	36.373946
3.010000	36.373946
3.020000	36.373946
3.030000	36.373946
3.040000	36.373946
3.050000	36.373946
3.060000	36.373946
3.070000	36.373946
3.080000	36.373946
3.090000	36.373946
3.100000	36.373946
3.110000	36.373946
3.120000	36.373946
3.130000	36.373946
3.140000	36.373946
3.150000	36.373946
3.160000	36.373946
3.170000	36.373946
3.180000	36.373946
3.190000	36.373946
3.200000	36.373946
3.210000	36.373946
3.220000	36.373946
3.230000	36.373946
3.240000	36.373946
3.250000	36.373946
3.260000	36.373946
3.270000	36.373946
3.280000	36.373946
3.290000	36.373946
3.300000	36.373946
3.310000	36.373946
3.320000	36.373946
3.330000	36.373946
3.340000	36.373946
3.350000	36.373946
3.360000	36.373946
3.370000	36.373946
3.380000	36.373946
3.390000	36.373946
3.400000	36.373946
3.410000	36.373946
3.420000	36.373946
3.430000	36.373946
3.440000	36.373946
3.450000	36.373946
3.460000	36.373946
3.470000	36.373946
3.480000	36.373946
3.490000	36.373946
3.500000	40.068159
3.510000	40.068159
3.520000	40.068159
3.530000	40.068159
3.540000	40.068159
3.550000	40.068159
3.560000	40.068159
3.570000	40.068159
3.580000	40.068159
3.590000	40.068159
3.600000	40.068159
3.610000	40.068159
3.620000	40.068159
3.630000	40.068159
3.640000	40.068159
3.650000	40.068159
3.660000	40.068159
3.670000	40.068159
3.680000	40.068159
3.690000	40.068159
3.700000	40.068159
3.710000	40.068159
3.720000	40.068159
3.730000	40.068159
3.740000	40.068159
3.750000	40.068159
3.760000	40.068159
3.770000	40.068159
3.780000	40.068159
3.790000	40.068159
3.800000	40.068159
3.810000	40.068159
3.820000	40.068159
3.830000	40.068159
3.840000	40.068159
3.850000	40.068159
3.860000	40.068159
3.870000	40.068159
3.880000	40.068159
3.890000	40.068159
3.900000	40.068159
3.910000	40.068159
3.920000	40.068159
3.930000	40.068159
3.940000	40.068159
3.950000	40.068159
3.960000	40.068159
3.970000	40.068159
3.980000	40.068159
3.990000	40.068159
4.000000	43.240027
4.010000	43.240027
4.020000	43.240027
4.030000	43.240027
4.040000	43.240027
4.050000	43.240027
4.060000	43.240027
4.070000	43.240027
4.080000	43.240027
4.090000	43.240027
4.100000	43.240027
4.110000	43.240027
4.120000	43.240027
4.130000	43.240027
4.140000	43.240027
4.150000	43.240027
4.160000	43.240027
4.170000	43.240027
4.180000	43.240027
4.190000	43.240027
4.200000	43.240027
4.210000	43.240027
4.220000	43.240027
4.230000	43.240027
4.240000	43.240027
4.250000	43.240027
4.260000	43.240027
4.270000	43.240027
4.280000	43.240027
4.290000	43.240027
4.300000	43.240027
4.310000	43.240027
4.320000	43.240027
4.330000	43.240027
4.340000	43.240027
4.350000	43.240027
4.360000	43.240027
4.370000	43.240027
4.380000	43.240027
4.390000	43.240027
4.400000	43.240027
4.410000	43.240027
4.420000	43.240027
4.430000	43.240027
4.440000	43.240027
4.450000	43.240027
4.460000	43.240027
4.470000	43.240027
4.480000	43.240027
4.490000	43.240027
4.500000	45.681354
4.510000	45.681354
4.520000	45.681354
4.530000	45.681354
4.540000	45.681354
4.550000	45.681354
4.560000	45.681354
4.570000	45.681354
4.580000	45.681354
4.590000	45.681354
4.600000	45.681354
4.610000	45.681354
4.620000	45.681354
4.630000	45.681354
4.640000	45.681354
4.650000	45.681354
4.660000	45.681354
4.670000	45.681354
4.680000	45.681354
4.690000	45.681354
4.700000	45.681354
4.710000	45.681354
4.720000	45.681354
4.730000	45.681354
4.740000	45.681354
4.750000	45.681354
4.760000	45.681354
4.770000	45.681354
4.780000	45.681354
4.790000	45.681354
4.800000	45.681354
4.810000	45.681354
4.820000	45.681354
4.830000	45.681354
4.840000	45.681354
4.850000	45.681354
4.860000	45.681354
4.870000	45.681354
4.880000	45.681354
4.890000	45.681354
4.900000	45.681354
4.910000	45.681354
4.920000	45.681354
4.930000	45.681354
4.940000	45.681354
4.950000	45.681354
4.960000	45.681354
4.970000	45.681354
4.980000	45.681354
4.990000	45.681354
5.000000	47.434256
5.010000	47.434256
5.020000	47.434256
5.030000	47.434256
5.040000	47.434256
5.050000	47.434256
5.060000	47.434256
5.070000	47.434256
5.080000	47.434256
5.090000	47.434256
5.100000	47.434256
5.110000	47.434256
5.120000	47.434256
5.130000	47.434256
5.140000	47.434256
5.150000	47.434256
5.160000	47.434256
5.170000	47.434256
5.180000	47.434256
5.190000	47.434256
5.200000	47.434256
5.210000	47.434256
5.220000	47.434256
5.230000	47.434256
5.240000	47.434256
5.250000	47.434256
5.260000	47.434256
5.270000	47.434256
5.280000	47.434256
5.290000	47.434256
5.300000	47.434256
5.310000	47.434256
5.320000	47.434256
5.330000	47.434256
5.340000	47.434256
5.350000	47.434256
5.360000	47.434256
5.370000	47.434256
5.380000	47.434256
5.390000	47.434256
5.400000	47.434256
5.410000	47.434256
5.420000	47.434256
5.430000	47.434256
5.440000	47.434256
5.450000	47.434256
5.460000	47.434256
5.470000	47.434256
5.480000	47.434256
5.490000	47.434256
5.500000	48.664029
5.510000	48.664029
5.520000	48.664029
5.530000	48.664029
5.540000	48.664029
5.550000	48.664029
5.560000	48.664029
5.570000	48.664029
5.580000	48.664029
5.590000	48.664029
5.600000	48.664029
5.610000	48.664029
5.620000	48.664029
5.630000	48.664029
5.640000	48.664029
5.650000	48.664029
5.660000	48.664029
5.670000	48.664029
5.680000	48.664029
5.690000	48.664029
5.700000	48.664029
5.710000	48.664029
5.720000	48.664029
5.730000	48.664029
5.740000	48.664029
5.750000	48.664029
5.760000	48.664029
5.770000	48.664029
5.780000	48.664029
5.790000	48.664029
5.800000	48.664029
5.810000	48.664029
5.820000	48.664029
5.830000	48.664029
5.840000	48.664029
5.850000	48.664029
5.860000	48.664029
5.870000	48.664029
5.880000	48.664029
5.890000	48.664029
5.900000	48.664029
5.910000	48.664029
5.920000	48.664029
5.930000	48.664029
5.940000	48.664029
5.950000	48.664029
5.960000	48.664029
5.970000	48.664029
5.980000	48.664029
5.990000	48.664029
6.000000	49.486187
6.010000	49.486187
6.020000	49.486187
6.030000	49.486187
6.040000	49.486187
6.050000	49.486187
6.060000	49.486187
6.070000	49.486187
6.080000	49.486187
6.090000	49.486187
6.100000	49.486187
6.110000	49.486187
6.120000	49.486187
6.130000	49.486187
6.140000	49.486187
6.150000	49.486187
6.160000	49.486187
6.170000	49.486187
6.180000	49.486187
6.190000	49.486187
6.200000	49.486187
6.210000	49.486187
6.220000	49.486187
6.230000	49.486187
6.240000	49.486187
6.250000	49.486187
6.260000	49.486187
6.270000	49.486187
6.280000	49.486187
6.290000	49.486187
6.300000	49.486187
6.310000	49.486187
6.320000	49.486187
6.330000	49.486187
6.340000	49.486187
6.350000	49.486187
6.360000	49.486187
6.370000	49.486187
6.380000	49.486187
6.390000	49.486187
6.400000	49.486187
6.410000	49.486187
6.420000	49.486187
6.430000	49.486187
6.440000	49.486187
6.450000	49.486187
6.460000	49.486187
6.470000	49.486187
6.480000	49.486187
6.490000	49.486187
6.500000	50.000942
6.510000	50.000942
6.520000	50.000942
6.530000	50.000942
6.540000	50.000942
6.550000	50.000942
6.560000	50.000942
6.570000	50.000942
6.580000	50.000942
6.590000	50.000942
6.600000	50.000942
6.610000	50.000942
6.620000	50.000942
6.630000	50.000942
6.640000	50.000942
6.650000	50.000942
6.660000	50.000942
6.670000	50.000942
6.680000	50.000942
6.690000	50.000942
6.700000	50.000942
6.710000	50.000942
6.720000	50.000942
6.730000	50.000942
6.740000	50.000942
6.750000	50.000942
6.760000	50.000942
6.770000	50.000942
6.780000	50.000942
6.790000	50.000942
6.800000	50.000942
6.810000	50.000942
6.820000	50.000942
6.830000	50.000942
6.840000	50.000942
6.850000	50.000942
6.860000	50.000942
6.870000	50.000942
6.880000	50.000942
6.890000	50.000942
6.900000	50.000942
6.910000	50.000942
6.920000	50.000942
6.930000	50.000942
6.940000	50.000942
6.950000	50.000942
6.960000	50.000942
6.970000	50.000942
6.980000	50.000942
6.990000	50.000942
7.000000	50.279865
7.010000	50.279865
7.020000	50.279865
7.030000	50.279865
7.040000	50.279865
7.050000	50.279865
7.060000	50.279865
7.070000	50.279865
7.080000	50.279865
7.090000	50.279865
7.100000	50.279865
7.110000	50.279865
7.120000	50.279865
7.130000	50.279865
7.140000	50.279865
7.150000	50.279865
7.160000	50.279865
7.170000	50.279865
7.180000	50.279865
7.190000	50.279865
7.200000	50.279865
7.210000	50.279865
7.220000	50.279865
7.230000	50.279865
7.240000	50.279865
7.250000	50.279865
7.260000	50.279865
7.270000	50.279865
7.280000	50.279865
7.290000	50.279865
7.300000	50.279865
7.310000	50.279865
7.320000	50.279865
7.330000	50.279865
7.340000	50.279865
7.350000	50.279865
7.360000	50.279865
7.370000	50.279865
7.380000	50.279865
7.390000	50.279865
7.400000	50.279865
7.410000	50.279865
7.420000	50.279865
7.430000	50.279865
7.440000	50.279865
7.450000	50.279865
7.460000	50.279865
7.470000	50.279865
7.480000	50.279865
7.490000	50.279865
7.500000	50.373146
7.510000	50.373146
7.520000	50.373146
7.530000	50.373146
7.540000	50.373146
7.550000	50.373146
7.560000	50.373146
7.570000	50.373146
7.580000	50.373146
7.590000	50.373146
7.600000	50.373146
7.610000	50.373146
7.620000	50.373146
7.630000	50.373146
7.640000	50.373146
7.650000	50.373146
7.660000	50.373146
7.670000	50.373146
7.680000	50.373146
7.690000	50.373146
7.700000	50.373146
7.710000	50.373146
7.720000	50.373146
7.730000	50.373146
7.740000	50.373146
7.750000	50.373146
7.760000	50.373146
7.770000	50.373146
7.780000	50.373146
7.790000	50.373146
7.800000	50.373146
7.810000	50.373146
7.820000	50.373146
7.830000	50.373146
7.840000	50.373146
7.850000	50.373146
7.860000	50.373146
7.870000	50.373146
7.880000	50.373146
7.890000	50.373146
7.900000	50.373146
7.910000	50.373146
7.920000	50.373146
7.930000	50.373146
7.940000	50.373146
7.950000	50.373146
7.960000	50.373146
7.970000	50.373146
7.980000	50.373146
7.990000	50.373146
8.000000	50.320863
8.010000	50.320863
8.020000	50.320863
8.030000	50.320863
8.040000	50.320863
8.050000	50.320863
8.060000	50.320863
8.070000	50.320863
8.080000	50.320863
8.090000	50.320863
8.100000	50.320863
8.110000	50.320863
8.120000	50.320863
8.130000	50.320863
8.140000	50.320863
8.150000	50.320863
8.160000	50.320863
8.170000	50.320863
8.180000	50.320863
8.190000	50.320863
8.200000	50.320863
8.210000	50.320863
8.220000	50.320863
8.230000	50.320863
8.240000	50.320863
8.250000	50.320863
8.260000	50.320863
8.270000	50.320863
8.280000	50.320863
8.290000	50.320863
8.300000	50.320863
8.310000	50.320863
8.320000	50.320863
8.330000	50.320863
8.340000	50.320863
8.350000	50.320863
8.360000	50.320863
8.370000	50.320863
8.380000	50.320863
8.390000	50.320863
8.400000	50.320863
8.410000	50.320863
8.420000	50.320863
8.430000	50.320863
8.440000	50.320863
8.450000	50.320863
8.460000	50.320863
8.470000	50.320863
8.480000	50.320863
8.490000	50.320863
8.500000	50.157633
8.510000	50.157633
8.520000	50.157633
8.530000	50.157633
8.540000	50.157633
8.550000	50.157633
8.560000	50.157633
8.570000	50.157633
8.580000	50.157633
8.590000	50.157633
8.600000	50.157633
8.610000	50.157633
8.620000	50.157633
8.630000	50.157633
8.640000	50.157633
8.650000	50.157633
8.660000	50.157633
8.670000	50.157633
8.680000	50.157633
8.690000	50.157633
8.700000	50.157633
8.710000	50.157633
8.720000	50.157633
8.730000	50.157633
8.740000	50.157633
8.750000	50.157633
8.760000	50.157633
8.770000	50.157633
8.780000	50.157633
8.790000	50.157633
8.800000	50.157633
8.810000	50.157633
8.820000	50.157633
8.830000	50.157633
8.840000	50.157633
8.850000	50.157633
8.860000	50.157633
8.870000	50.157633
8.880000	50.157633
8.890000	50.157633
8.900000	50.157633
8.910000	50.157633
8.920000	50.157633
8.930000	50.157633
8.940000	50.157633
8.950000	50.157633
8.960000	50.157633
8.970000	50.157633
8.980000	50.157633
8.990000	50.157633
9.000000	49.911946
9.010000	49.911946
9.020000	49.911946
9.030000	49.911946
9.040000	49.911946
9.050000	49.911946
9.060000	49.911946
9.070000	49.911946
9.080000	49.911946
9.090000	49.911946
9.100000	49.911946
9.110000	49.911946
9.120000	49.911946
9.130000	49.911946
9.140000	49.911946
9.150000	49.911946
9.160000	49.911946
9.170000	49.911946
9.180000	49.911946
9.190000	49.911946
9.200000	49.911946
9.210000	49.911946
9.220000	49.911946
9.230000	49.911946
9.240000	49.911946
9.250000	49.911946
9.260000	49.911946
9.270000	49.911946
9.280000	49.911946
9.290000	49.911946
9.300000	49.911946
9.310000	49.911946
9.320000	49.911946
9.330000	49.911946
9.340000	49.911946
9.350000	49.911946
9.360000	49.911946
9.370000	49.911946
9.380000	49.911946
9.390000	49.911946
9.400000	49.911946
9.410000	49.911946
9.420000	49.911946
9.430000	49.911946
9.440000	49.911946
9.450000	49.911946
9.460000	49.911946
9.470000	49.911946
9.480000	49.911946
9.490000	49.911946
9.500000	49.600485
9.510000	49.600485
9.520000	49.600485
9.530000	49.600485
9.540000	49.600485
9.550000	49.600485
9.560000	49.600485
9.570000	49.600485
9.580000	49.600485
9.590000	49.600485
9.600000	49.600485
9.610000	49.600485
9.620000	49.600485
9.630000	49.600485
9.640000	49.600485
9.650000	49.600485
9.660000	49.600485
9.670000	49.600485
9.680000	49.600485
9.690000	49.600485
9.700000	49.600485
9.710000	49.600485
9.720000	49.600485
9.730000	49.600485
9.740000	49.600485
9.750000	49.600485
9.760000	49.600485
