LabVIEW Measurement	
Writer_Version	2
Reader_Version	2
Separator	Tab
Decimal_Separator	.
Multi_Headings	No
X_Columns	One
Time_Pref	Absolute
Operator	biomech-dyno
Date	2023/05/23
Time	16:26:31.1792034999998606061
***End_of_Header***	
	
Channels	1	
Samples	10	
Date	2023/05/23	
Time	18:20:02.4916043999996988468	
X_Dimension	Time	
X0	0.0000000000000000E+0	
Delta_X	0.010000	
***End_of_Header***		
X_Value	Untitled	Comment
0.000000	25.163236
0.010000	25.163236
0.020000	25.163236
0.030000	25.163236
0.040000	25.163236
0.050000	25.163236
0.060000	25.163236
0.070000	25.163236
0.080000	25.163236
0.090000	25.163236
0.100000	25.163236
0.110000	25.163236
0.120000	25.163236
0.130000	25.163236
0.140000	25.163236
0.150000	25.163236
0.160000	25.163236
0.170000	25.163236
0.180000	25.163236
0.190000	25.163236
0.200000	25.163236
0.210000	25.163236
0.220000	25.163236
0.230000	25.163236
0.240000	25.163236
0.250000	25.163236
0.260000	25.163236
0.270000	25.163236
0.280000	25.163236
0.290000	25.163236
0.300000	25.163236
0.310000	25.163236
0.320000	25.163236
0.330000	25.163236
0.340000	25.163236
0.350000	25.163236
0.360000	25.163236
0.370000	25.163236
0.380000	25.163236
0.390000	25.163236
0.400000	25.163236
0.410000	25.163236
0.420000	25.163236
0.430000	25.163236
0.440000	25.163236
0.450000	25.163236
0.460000	25.163236
0.470000	25.163236
0.480000	25.163236
0.490000	25.163236
0.500000	25.232902
0.510000	25.232902
0.520000	25.232902
0.530000	25.232902
0.540000	25.232902
0.550000	25.232902
0.560000	25.232902
0.570000	25.232902
0.580000	25.232902
0.590000	25.232902
0.600000	25.232902
0.610000	25.232902
0.620000	25.232902
0.630000	25.232902
0.640000	25.232902
0.650000	25.232902
0.660000	25.232902
0.670000	25.232902
0.680000	25.232902
0.690000	25.232902
0.700000	25.232902
0.710000	25.232902
0.720000	25.232902
0.730000	25.232902
0.740000	25.232902
0.750000	25.232902
0.760000	25.232902
0.770000	25.232902
0.780000	25.232902
0.790000	25.232902
0.800000	25.232902
0.810000	25.232902
0.820000	25.232902
0.830000	25.232902
0.840000	25.232902
0.850000	25.232902
0.860000	25.232902
0.870000	25.232902
0.880000	25.232902
0.890000	25.232902
0.900000	25.232902
0.910000	25.232902
0.920000	25.232902
0.930000	25.232902
0.940000	25.232902
0.950000	25.232902
0.960000	25.232902
0.970000	25.232902
0.980000	25.232902
0.990000	25.232902
1.000000	25.936828
1.010000	25.936828
1.020000	25.936828
1.030000	25.936828
1.040000	25.936828
1.050000	25.936828
1.060000	25.936828
1.070000	25.936828
1.080000	25.936828
1.090000	25.936828
1.100000	25.936828
1.110000	25.936828
1.120000	25.936828
1.130000	25.936828
1.140000	25.936828
1.150000	25.936828
1.160000	25.936828
1.170000	25.936828
1.180000	25.936828
1.190000	25.936828
1.200000	25.936828
1.210000	25.936828
1.220000	25.936828
1.230000	25.936828
1.240000	25.936828
1.250000	25.936828
1.260000	25.936828
1.270000	25.936828
1.280000	25.936828
1.290000	25.936828
1.300000	25.936828
1.310000	25.936828
1.320000	25.936828
1.330000	25.936828
1.340000	25.936828
1.350000	25.936828
1.360000	25.936828
1.370000	25.936828
1.380000	25.936828
1.390000	25.936828
1.400000	25.936828
1.410000	25.936828
1.420000	25.936828
1.430000	25.936828
1.440000	25.936828
1.450000	25.936828
1.460000	25.936828
1.470000	25.936828
1.480000	25.936828
1.490000	25.936828
1.500000	27.590373
1.510000	27.590373
1.520000	27.590373
1.530000	27.590373
1.540000	27.590373
1.550000	27.590373
1.560000	27.590373
1.570000	27.590373
1.580000	27.590373
1.590000	27.590373
1.600000	27.590373
1.610000	27.590373
1.620000	27.590373
1.630000	27.590373
1.640000	27.590373
1.650000	27.590373
1.660000	27.590373
1.670000	27.590373
1.680000	27.590373
1.690000	27.590373
1.700000	27.590373
1.710000	27.590373
1.720000	27.590373
1.730000	27.590373
1.740000	27.590373
1.750000	27.590373
1.760000	27.590373
1.770000	27.590373
1.780000	27.590373
1.790000	27.590373
1.800000	27.590373
1.810000	27.590373
1.820000	27.590373
1.830000	27.590373
1.840000	27.590373
1.850000	27.590373
1.860000	27.590373
1.870000	27.590373
1.880000	27.590373
1.890000	27.590373
1.900000	27.590373
1.910000	27.590373
1.920000	27.590373
1.930000	27.590373
1.940000	27.590373
1.950000	27.590373
1.960000	27.590373
1.970000	27.590373
1.980000	27.590373
1.990000	27.590373
2.000000	30.030149
2.010000	30.030149
2.020000	30.030149
2.030000	30.030149
2.040000	30.030149
2.050000	30.030149
2.060000	30.030149
2.070000	30.030149
2.080000	30.030149
2.090000	30.030149
2.100000	30.030149
2.110000	30.030149
2.120000	30.030149
2.130000	30.030149
2.140000	30.030149
2.150000	30.030149
2.160000	30.030149
2.170000	30.030149
2.180000	30.030149
2.190000	30.030149
2.200000	30.030149
2.210000	30.030149
2.220000	30.030149
2.230000	30.030149
2.240000	30.030149
2.250000	30.030149
2.260000	30.030149
2.270000	30.030149
2.280000	30.030149
2.290000	30.030149
2.300000	30.030149
2.310000	30.030149
2.320000	30.030149
2.330000	30.030149
2.340000	30.030149
2.350000	30.030149
2.360000	30.030149
2.370000	30.030149
2.380000	30.030149
2.390000	30.030149
2.400000	30.030149
2.410000	30.030149
2.420000	30.030149
2.430000	30.030149
2.440000	30.030149
2.450000	30.030149
2.460000	30.030149
2.470000	30.030149
2.480000	30.030149
2.490000	30.030149
2.500000	33.075438
2.510000	33.075438
2.520000	33.075438
2.530000	33.075438
2.540000	33.075438
2.550000	33.075438
2.560000	33.075438
2.570000	33.075438
2.580000	33.075438
2.590000	33.075438
2.600000	33.075438
2.610000	33.075438
2.620000	33.075438
2.630000	33.075438
2.640000	33.075438
2.650000	33.075438
2.660000	33.075438
2.670000	33.075438
2.680000	33.075438
2.690000	33.075438
2.700000	33.075438
2.710000	33.075438
2.720000	33.075438
2.730000	33.075438
2.740000	33.075438
2.750000	33.075438
2.760000	33.075438
2.770000	33.075438
2.780000	33.075438
2.790000	33.075438
2.800000	33.075438
2.810000	33.075438
2.820000	33.075438
2.830000	33.075438
2.840000	33.075438
2.850000	33.075438
2.860000	33.075438
2.870000	33.075438
2.880000	33.075438
2.890000	33.075438
2.900000	33.075438
2.910000	33.075438
2.920000	33.075438
2.930000	33.075438
2.940000	33.075438
2.950000	33.075438
2.960000	33.075438
2.970000	33.075438
2.980000	33.075438
2.990000	33.075438
3.000000	36.579492
3.010000	36.579492
3.020000	36.579492
3.030000	36.579492
3.040000	36.579492
3.050000	36.579492
3.060000	36.579492
3.070000	36.579492
3.080000	36.579492
3.090000	36.579492
3.100000	36.579492
3.110000	36.579492
3.120000	36.579492
3.130000	36.579492
3.140000	36.579492
3.150000	36.579492
3.160000	36.579492
3.170000	36.579492
3.180000	36.579492
3.190000	36.579492
3.200000	36.579492
3.210000	36.579492
3.220000	36.579492
3.230000	36.579492
3.240000	36.579492
3.250000	36.579492
3.260000	36.579492
3.270000	36.579492
3.280000	36.579492
3.290000	36.579492
3.300000	36.579492
3.310000	36.579492
3.320000	36.579492
3.330000	36.579492
3.340000	36.579492
3.350000	36.579492
3.360000	36.579492
3.370000	36.579492
3.380000	36.579492
3.390000	36.579492
3.400000	36.579492
3.410000	36.579492
3.420000	36.579492
3.430000	36.579492
3.440000	36.579492
3.450000	36.579492
3.460000	36.579492
3.470000	36.579492
3.480000	36.579492
3.490000	36.579492
3.500000	40.338284
3.510000	40.338284
3.520000	40.338284
3.530000	40.338284
3.540000	40.338284
3.550000	40.338284
3.560000	40.338284
3.570000	40.338284
3.580000	40.338284
3.590000	40.338284
3.600000	40.338284
3.610000	40.338284
3.620000	40.338284
3.630000	40.338284
3.640000	40.338284
3.650000	40.338284
3.660000	40.338284
3.670000	40.338284
3.680000	40.338284
3.690000	40.338284
3.700000	40.338284
3.710000	40.338284
3.720000	40.338284
3.730000	40.338284
3.740000	40.338284
3.750000	40.338284
3.760000	40.338284
3.770000	40.338284
3.780000	40.338284
3.790000	40.338284
3.800000	40.338284
3.810000	40.338284
3.820000	40.338284
3.830000	40.338284
3.840000	40.338284
3.850000	40.338284
3.860000	40.338284
3.870000	40.338284
3.880000	40.338284
3.890000	40.338284
3.900000	40.338284
3.910000	40.338284
3.920000	40.338284
3.930000	40.338284
3.940000	40.338284
3.950000	40.338284
3.960000	40.338284
3.970000	40.338284
3.980000	40.338284
3.990000	40.338284
4.000000	43.661551
4.010000	43.661551
4.020000	43.661551
4.030000	43.661551
4.040000	43.661551
4.050000	43.661551
4.060000	43.661551
4.070000	43.661551
4.080000	43.661551
4.090000	43.661551
4.100000	43.661551
4.110000	43.661551
4.120000	43.661551
4.130000	43.661551
4.140000	43.661551
4.150000	43.661551
4.160000	43.661551
4.170000	43.661551
4.180000	43.661551
4.190000	43.661551
4.200000	43.661551
4.210000	43.661551
4.220000	43.661551
4.230000	43.661551
4.240000	43.661551
4.250000	43.661551
4.260000	43.661551
4.270000	43.661551
4.280000	43.661551
4.290000	43.661551
4.300000	43.661551
4.310000	43.661551
4.320000	43.661551
4.330000	43.661551
4.340000	43.661551
4.350000	43.661551
4.360000	43.661551
4.370000	43.661551
4.380000	43.661551
4.390000	43.661551
4.400000	43.661551
4.410000	43.661551
4.420000	43.661551
4.430000	43.661551
4.440000	43.661551
4.450000	43.661551
4.460000	43.661551
4.470000	43.661551
4.480000	43.661551
4.490000	43.661551
4.500000	46.200193
4.510000	46.200193
4.520000	46.200193
4.530000	46.200193
4.540000	46.200193
4.550000	46.200193
4.560000	46.200193
4.570000	46.200193
4.580000	46.200193
4.590000	46.200193
4.600000	46.200193
4.610000	46.200193
4.620000	46.200193
4.630000	46.200193
4.640000	46.200193
4.650000	46.200193
4.660000	46.200193
4.670000	46.200193
4.680000	46.200193
4.690000	46.200193
4.700000	46.200193
4.710000	46.200193
4.720000	46.200193
4.730000	46.200193
4.740000	46.200193
4.750000	46.200193
4.760000	46.200193
4.770000	46.200193
4.780000	46.200193
4.790000	46.200193
4.800000	46.200193
4.810000	46.200193
4.820000	46.200193
4.830000	46.200193
4.840000	46.200193
4.850000	46.200193
4.860000	46.200193
4.870000	46.200193
4.880000	46.200193
4.890000	46.200193
4.900000	46.200193
4.910000	46.200193
4.920000	46.200193
4.930000	46.200193
4.940000	46.200193
4.950000	46.200193
4.960000	46.200193
4.970000	46.200193
4.980000	46.200193
4.990000	46.200193
5.000000	48.066183
5.010000	48.066183
5.020000	48.066183
5.030000	48.066183
5.040000	48.066183
5.050000	48.066183
5.060000	48.066183
5.070000	48.066183
5.080000	48.066183
5.090000	48.066183
5.100000	48.066183
5.110000	48.066183
5.120000	48.066183
5.130000	48.066183
5.140000	48.066183
5.150000	48.066183
5.160000	48.066183
5.170000	48.066183
5.180000	48.066183
5.190000	48.066183
5.200000	48.066183
5.210000	48.066183
5.220000	48.066183
5.230000	48.066183
5.240000	48.066183
5.250000	48.066183
5.260000	48.066183
5.270000	48.066183
5.280000	48.066183
5.290000	48.066183
5.300000	48.066183
5.310000	48.066183
5.320000	48.066183
5.330000	48.066183
5.340000	48.066183
5.350000	48.066183
5.360000	48.066183
5.370000	48.066183
5.380000	48.066183
5.390000	48.066183
5.400000	48.066183
5.410000	48.066183
5.420000	48.066183
5.430000	48.066183
5.440000	48.066183
5.450000	48.066183
5.460000	48.066183
5.470000	48.066183
5.480000	48.066183
5.490000	48.066183
5.500000	49.392982
5.510000	49.392982
5.520000	49.392982
5.530000	49.392982
5.540000	49.392982
5.550000	49.392982
5.560000	49.392982
5.570000	49.392982
5.580000	49.392982
5.590000	49.392982
5.600000	49.392982
5.610000	49.392982
5.620000	49.392982
5.630000	49.392982
5.640000	49.392982
5.650000	49.392982
5.660000	49.392982
5.670000	49.392982
5.680000	49.392982
5.690000	49.392982
5.700000	49.392982
5.710000	49.392982
5.720000	49.392982
5.730000	49.392982
5.740000	49.392982
5.750000	49.392982
5.760000	49.392982
5.770000	49.392982
5.780000	49.392982
5.790000	49.392982
5.800000	49.392982
5.810000	49.392982
5.820000	49.392982
5.830000	49.392982
5.840000	49.392982
5.850000	49.392982
5.860000	49.392982
5.870000	49.392982
5.880000	49.392982
5.890000	49.392982
5.900000	49.392982
5.910000	49.392982
5.920000	49.392982
5.930000	49.392982
5.940000	49.392982
5.950000	49.392982
5.960000	49.392982
5.970000	49.392982
5.980000	49.392982
5.990000	49.392982
6.000000	50.279578
6.010000	50.279578
6.020000	50.279578
6.030000	50.279578
6.040000	50.279578
6.050000	50.279578
6.060000	50.279578
6.070000	50.279578
6.080000	50.279578
6.090000	50.279578
6.100000	50.279578
6.110000	50.279578
6.120000	50.279578
6.130000	50.279578
6.140000	50.279578
6.150000	50.279578
6.160000	50.279578
6.170000	50.279578
6.180000	50.279578
6.190000	50.279578
6.200000	50.279578
6.210000	50.279578
6.220000	50.279578
6.230000	50.279578
6.240000	50.279578
6.250000	50.279578
6.260000	50.279578
6.270000	50.279578
6.280000	50.279578
6.290000	50.279578
6.300000	50.279578
6.310000	50.279578
6.320000	50.279578
6.330000	50.279578
6.340000	50.279578
6.350000	50.279578
6.360000	50.279578
6.370000	50.279578
6.380000	50.279578
6.390000	50.279578
6.400000	50.279578
6.410000	50.279578
6.420000	50.279578
6.430000	50.279578
6.440000	50.279578
6.450000	50.279578
6.460000	50.279578
6.470000	50.279578
6.480000	50.279578
6.490000	50.279578
6.500000	50.834552
6.510000	50.834552
6.520000	50.834552
6.530000	50.834552
6.540000	50.834552
6.550000	50.834552
6.560000	50.834552
6.570000	50.834552
6.580000	50.834552
6.590000	50.834552
6.600000	50.834552
6.610000	50.834552
6.620000	50.834552
6.630000	50.834552
6.640000	50.834552
6.650000	50.834552
6.660000	50.834552
6.670000	50.834552
6.680000	50.834552
6.690000	50.834552
6.700000	50.834552
6.710000	50.834552
6.720000	50.834552
6.730000	50.834552
6.740000	50.834552
6.750000	50.834552
6.760000	50.834552
6.770000	50.834552
6.780000	50.834552
6.790000	50.834552
6.800000	50.834552
6.810000	50.834552
6.820000	50.834552
6.830000	50.834552
6.840000	50.834552
6.850000	50.834552
6.860000	50.834552
6.870000	50.834552
6.880000	50.834552
6.890000	50.834552
6.900000	50.834552
6.910000	50.834552
6.920000	50.834552
6.930000	50.834552
6.940000	50.834552
6.950000	50.834552
6.960000	50.834552
6.970000	50.834552
6.980000	50.834552
6.990000	50.834552
7.000000	51.149587
7.010000	51.149587
7.020000	51.149587
7.030000	51.149587
7.040000	51.149587
7.050000	51.149587
7.060000	51.149587
7.070000	51.149587
7.080000	51.149587
7.090000	51.149587
7.100000	51.149587
7.110000	51.149587
7.120000	51.149587
7.130000	51.149587
7.140000	51.149587
7.150000	51.149587
7.160000	51.149587
7.170000	51.149587
7.180000	51.149587
7.190000	51.149587
7.200000	51.149587
7.210000	51.149587
7.220000	51.149587
7.230000	51.149587
7.240000	51.149587
7.250000	51.149587
7.260000	51.149587
7.270000	51.149587
7.280000	51.149587
7.290000	51.149587
7.300000	51.149587
7.310000	51.149587
7.320000	51.149587
7.330000	51.149587
7.340000	51.149587
7.350000	51.149587
7.360000	51.149587
7.370000	51.149587
7.380000	51.149587
7.390000	51.149587
7.400000	51.149587
7.410000	51.149587
7.420000	51.149587
7.430000	51.149587
7.440000	51.149587
7.450000	51.149587
7.460000	51.149587
7.470000	51.149587
7.480000	51.149587
7.490000	51.149587
7.500000	51.278728
7.510000	51.278728
7.520000	51.278728
7.530000	51.278728
7.540000	51.278728
7.550000	51.278728
7.560000	51.278728
7.570000	51.278728
7.580000	51.278728
7.590000	51.278728
7.600000	51.278728
7.610000	51.278728
7.620000	51.278728
7.630000	51.278728
7.640000	51.278728
7.650000	51.278728
7.660000	51.278728
7.670000	51.278728
7.680000	51.278728
7.690000	51.278728
7.700000	51.278728
7.710000	51.278728
7.720000	51.278728
7.730000	51.278728
7.740000	51.278728
7.750000	51.278728
7.760000	51.278728
7.770000	51.278728
7.780000	51.278728
7.790000	51.278728
7.800000	51.278728
7.810000	51.278728
7.820000	51.278728
7.830000	51.278728
7.840000	51.278728
7.850000	51.278728
7.860000	51.278728
7.870000	51.278728
7.880000	51.278728
7.890000	51.278728
7.900000	51.278728
7.910000	51.278728
7.920000	51.278728
7.930000	51.278728
7.940000	51.278728
7.950000	51.278728
7.960000	51.278728
7.970000	51.278728
7.980000	51.278728
7.990000	51.278728
8.000000	51.249060
8.010000	51.249060
8.020000	51.249060
8.030000	51.249060
8.040000	51.249060
8.050000	51.249060
8.060000	51.249060
8.070000	51.249060
8.080000	51.249060
8.090000	51.249060
8.100000	51.249060
8.110000	51.249060
8.120000	51.249060
8.130000	51.249060
8.140000	51.249060
8.150000	51.249060
8.160000	51.249060
8.170000	51.249060
8.180000	51.249060
8.190000	51.249060
8.200000	51.249060
8.210000	51.249060
8.220000	51.249060
8.230000	51.249060
8.240000	51.249060
8.250000	51.249060
8.260000	51.249060
8.270000	51.249060
8.280000	51.249060
8.290000	51.249060
8.300000	51.249060
8.310000	51.249060
8.320000	51.249060
8.330000	51.249060
8.340000	51.249060
8.350000	51.249060
8.360000	51.249060
8.370000	51.249060
8.380000	51.249060
8.390000	51.249060
8.400000	51.249060
8.410000	51.249060
8.420000	51.249060
8.430000	51.249060
8.440000	51.249060
8.450000	51.249060
8.460000	51.249060
8.470000	51.249060
8.480000	51.249060
8.490000	51.249060
8.500000	51.097467
8.510000	51.097467
8.520000	51.097467
8.530000	51.097467
8.540000	51.097467
8.550000	51.097467
8.560000	51.097467
8.570000	51.097467
8.580000	51.097467
8.590000	51.097467
8.600000	51.097467
8.610000	51.097467
8.620000	51.097467
8.630000	51.097467
8.640000	51.097467
8.650000	51.097467
8.660000	51.097467
8.670000	51.097467
8.680000	51.097467
8.690000	51.097467
8.700000	51.097467
8.710000	51.097467
8.720000	51.097467
8.730000	51.097467
8.740000	51.097467
8.750000	51.097467
8.760000	51.097467
8.770000	51.097467
8.780000	51.097467
8.790000	51.097467
8.800000	51.097467
8.810000	51.097467
8.820000	51.097467
8.830000	51.097467
8.840000	51.097467
8.850000	51.097467
8.860000	51.097467
8.870000	51.097467
8.880000	51.097467
8.890000	51.097467
8.900000	51.097467
8.910000	51.097467
8.920000	51.097467
8.930000	51.097467
8.940000	51.097467
8.950000	51.097467
8.960000	51.097467
8.970000	51.097467
8.980000	51.097467
8.990000	51.097467
9.000000	50.854664
9.010000	50.854664
9.020000	50.854664
9.030000	50.854664
9.040000	50.854664
9.050000	50.854664
9.060000	50.854664
9.070000	50.854664
9.080000	50.854664
9.090000	50.854664
9.100000	50.854664
9.110000	50.854664
9.120000	50.854664
9.130000	50.854664
9.140000	50.854664
9.150000	50.854664
9.160000	50.854664
9.170000	50.854664
9.180000	50.854664
9.190000	50.854664
9.200000	50.854664
9.210000	50.854664
9.220000	50.854664
9.230000	50.854664
9.240000	50.854664
9.250000	50.854664
9.260000	50.854664
9.270000	50.854664
9.280000	50.854664
9.290000	50.854664
9.300000	50.854664
9.310000	50.854664
9.320000	50.854664
9.330000	50.854664
9.340000	50.854664
9.350000	50.854664
9.360000	50.854664
9.370000	50.854664
9.380000	50.854664
9.390000	50.854664
9.400000	50.854664
9.410000	50.854664
9.420000	50.854664
9.430000	50.854664
9.440000	50.854664
9.450000	50.854664
9.460000	50.854664
9.470000	50.854664
9.480000	50.854664
9.490000	50.854664
9.500000	50.543643
9.510000	50.543643
9.520000	50.543643
9.530000	50.543643
9.540000	50.543643
9.550000	50.543643
9.560000	50.543643
9.570000	50.543643
9.580000	50.543643
9.590000	50.543643
9.600000	50.543643
9.610000	50.543643
9.620000	50.543643
9.630000	50.543643
9.640000	50.543643
9.650000	50.543643
9.660000	50.543643
9.670000	50.543643
9.680000	50.543643
9.690000	50.543643
9.700000	50.543643
9.710000	50.543643
9.720000	50.543643
9.730000	50.543643
9.740000	50.543643
9.750000	50.543643
9.760000	50.543643
