LabVIEW Measurement	
Writer_Version	2
Reader_Version	2
Separator	Tab
Decimal_Separator	.
Multi_Headings	No
X_Columns	One
Time_Pref	Absolute
Operator	biomech-dyno
Date	2023/05/23
Time	16:26:31.1792034999998606061
***End_of_Header***	
	
Channels	1	
Samples	10	
Date	2023/05/23	
Time	18:18:23.5540143999996665312	
X_Dimension	Time	
X0	0.0000000000000000E+0	
Delta_X	0.010000	
***End_of_Header***		
X_Value	Untitled	Comment
0.000000	25.150021
0.010000	25.150021
0.020000	25.150021
0.030000	25.150021
0.040000	25.150021
0.050000	25.150021
0.060000	25.150021
0.070000	25.150021
0.080000	25.150021
0.090000	25.150021
0.100000	25.150021
0.110000	25.150021
0.120000	25.150021
0.130000	25.150021
0.140000	25.150021
0.150000	25.150021
0.160000	25.150021
0.170000	25.150021
0.180000	25.150021
0.190000	25.150021
0.200000	25.150021
0.210000	25.150021
0.220000	25.150021
0.230000	25.150021
0.240000	25.150021
0.250000	25.150021
0.260000	25.150021
0.270000	25.150021
0.280000	25.150021
0.290000	25.150021
0.300000	25.150021
0.310000	25.150021
0.320000	25.150021
0.330000	25.150021
0.340000	25.150021
0.350000	25.150021
0.360000	25.150021
0.370000	25.150021
0.380000	25.150021
0.390000	25.150021
0.400000	25.150021
0.410000	25.150021
0.420000	25.150021
0.430000	25.150021
0.440000	25.150021
0.450000	25.150021
0.460000	25.150021
0.470000	25.150021
0.480000	25.150021
0.490000	25.150021
0.500000	25.203945
0.510000	25.203945
0.520000	25.203945
0.530000	25.203945
0.540000	25.203945
0.550000	25.203945
0.560000	25.203945
0.570000	25.203945
0.580000	25.203945
0.590000	25.203945
0.600000	25.203945
0.610000	25.203945
0.620000	25.203945
0.630000	25.203945
0.640000	25.203945
0.650000	25.203945
0.660000	25.203945
0.670000	25.203945
0.680000	25.203945
0.690000	25.203945
0.700000	25.203945
0.710000	25.203945
0.720000	25.203945
0.730000	25.203945
0.740000	25.203945
0.750000	25.203945
0.760000	25.203945
0.770000	25.203945
0.780000	25.203945
0.790000	25.203945
0.800000	25.203945
0.810000	25.203945
0.820000	25.203945
0.830000	25.203945
0.840000	25.203945
0.850000	25.203945
0.860000	25.203945
0.870000	25.203945
0.880000	25.203945
0.890000	25.203945
0.900000	25.203945
0.910000	25.203945
0.920000	25.203945
0.930000	25.203945
0.940000	25.203945
0.950000	25.203945
0.960000	25.203945
0.970000	25.203945
0.980000	25.203945
0.990000	25.203945
1.000000	25.769266
1.010000	25.769266
1.020000	25.769266
1.030000	25.769266
1.040000	25.769266
1.050000	25.769266
1.060000	25.769266
1.070000	25.769266
1.080000	25.769266
1.090000	25.769266
1.100000	25.769266
1.110000	25.769266
1.120000	25.769266
1.130000	25.769266
1.140000	25.769266
1.150000	25.769266
1.160000	25.769266
1.170000	25.769266
1.180000	25.769266
1.190000	25.769266
1.200000	25.769266
1.210000	25.769266
1.220000	25.769266
1.230000	25.769266
1.240000	25.769266
1.250000	25.769266
1.260000	25.769266
1.270000	25.769266
1.280000	25.769266
1.290000	25.769266
1.300000	25.769266
1.310000	25.769266
1.320000	25.769266
1.330000	25.769266
1.340000	25.769266
1.350000	25.769266
1.360000	25.769266
1.370000	25.769266
1.380000	25.769266
1.390000	25.769266
1.400000	25.769266
1.410000	25.769266
1.420000	25.769266
1.430000	25.769266
1.440000	25.769266
1.450000	25.769266
1.460000	25.769266
1.470000	25.769266
1.480000	25.769266
1.490000	25.769266
1.500000	27.091971
1.510000	27.091971
1.520000	27.091971
1.530000	27.091971
1.540000	27.091971
1.550000	27.091971
1.560000	27.091971
1.570000	27.091971
1.580000	27.091971
1.590000	27.091971
1.600000	27.091971
1.610000	27.091971
1.620000	27.091971
1.630000	27.091971
1.640000	27.091971
1.650000	27.091971
1.660000	27.091971
1.670000	27.091971
1.680000	27.091971
1.690000	27.091971
1.700000	27.091971
1.710000	27.091971
1.720000	27.091971
1.730000	27.091971
1.740000	27.091971
1.750000	27.091971
1.760000	27.091971
1.770000	27.091971
1.780000	27.091971
1.790000	27.091971
1.800000	27.091971
1.810000	27.091971
1.820000	27.091971
1.830000	27.091971
1.840000	27.091971
1.850000	27.091971
1.860000	27.091971
1.870000	27.091971
1.880000	27.091971
1.890000	27.091971
1.900000	27.091971
1.910000	27.091971
1.920000	27.091971
1.930000	27.091971
1.940000	27.091971
1.950000	27.091971
1.960000	27.091971
1.970000	27.091971
1.980000	27.091971
1.990000	27.091971
2.000000	29.044758
2.010000	29.044758
2.020000	29.044758
2.030000	29.044758
2.040000	29.044758
2.050000	29.044758
2.060000	29.044758
2.070000	29.044758
2.080000	29.044758
2.090000	29.044758
2.100000	29.044758
2.110000	29.044758
2.120000	29.044758
2.130000	29.044758
2.140000	29.044758
2.150000	29.044758
2.160000	29.044758
2.170000	29.044758
2.180000	29.044758
2.190000	29.044758
2.200000	29.044758
2.210000	29.044758
2.220000	29.044758
2.230000	29.044758
2.240000	29.044758
2.250000	29.044758
2.260000	29.044758
2.270000	29.044758
2.280000	29.044758
2.290000	29.044758
2.300000	29.044758
2.310000	29.044758
2.320000	29.044758
2.330000	29.044758
2.340000	29.044758
2.350000	29.044758
2.360000	29.044758
2.370000	29.044758
2.380000	29.044758
2.390000	29.044758
2.400000	29.044758
2.410000	29.044758
2.420000	29.044758
2.430000	29.044758
2.440000	29.044758
2.450000	29.044758
2.460000	29.044758
2.470000	29.044758
2.480000	29.044758
2.490000	29.044758
2.500000	31.492972
2.510000	31.492972
2.520000	31.492972
2.530000	31.492972
2.540000	31.492972
2.550000	31.492972
2.560000	31.492972
2.570000	31.492972
2.580000	31.492972
2.590000	31.492972
2.600000	31.492972
2.610000	31.492972
2.620000	31.492972
2.630000	31.492972
2.640000	31.492972
2.650000	31.492972
2.660000	31.492972
2.670000	31.492972
2.680000	31.492972
2.690000	31.492972
2.700000	31.492972
2.710000	31.492972
2.720000	31.492972
2.730000	31.492972
2.740000	31.492972
2.750000	31.492972
2.760000	31.492972
2.770000	31.492972
2.780000	31.492972
2.790000	31.492972
2.800000	31.492972
2.810000	31.492972
2.820000	31.492972
2.830000	31.492972
2.840000	31.492972
2.850000	31.492972
2.860000	31.492972
2.870000	31.492972
2.880000	31.492972
2.890000	31.492972
2.900000	31.492972
2.910000	31.492972
2.920000	31.492972
2.930000	31.492972
2.940000	31.492972
2.950000	31.492972
2.960000	31.492972
2.970000	31.492972
2.980000	31.492972
2.990000	31.492972
3.000000	34.302916
3.010000	34.302916
3.020000	34.302916
3.030000	34.302916
3.040000	34.302916
3.050000	34.302916
3.060000	34.302916
3.070000	34.302916
3.080000	34.302916
3.090000	34.302916
3.100000	34.302916
3.110000	34.302916
3.120000	34.302916
3.130000	34.302916
3.140000	34.302916
3.150000	34.302916
3.160000	34.302916
3.170000	34.302916
3.180000	34.302916
3.190000	34.302916
3.200000	34.302916
3.210000	34.302916
3.220000	34.302916
3.230000	34.302916
3.240000	34.302916
3.250000	34.302916
3.260000	34.302916
3.270000	34.302916
3.280000	34.302916
3.290000	34.302916
3.300000	34.302916
3.310000	34.302916
3.320000	34.302916
3.330000	34.302916
3.340000	34.302916
3.350000	34.302916
3.360000	34.302916
3.370000	34.302916
3.380000	34.302916
3.390000	34.302916
3.400000	34.302916
3.410000	34.302916
3.420000	34.302916
3.430000	34.302916
3.440000	34.302916
3.450000	34.302916
3.460000	34.302916
3.470000	34.302916
3.480000	34.302916
3.490000	34.302916
3.500000	37.283225
3.510000	37.283225
3.520000	37.283225
3.530000	37.283225
3.540000	37.283225
3.550000	37.283225
3.560000	37.283225
3.570000	37.283225
3.580000	37.283225
3.590000	37.283225
3.600000	37.283225
3.610000	37.283225
3.620000	37.283225
3.630000	37.283225
3.640000	37.283225
3.650000	37.283225
3.660000	37.283225
3.670000	37.283225
3.680000	37.283225
3.690000	37.283225
3.700000	37.283225
3.710000	37.283225
3.720000	37.283225
3.730000	37.283225
3.740000	37.283225
3.750000	37.283225
3.760000	37.283225
3.770000	37.283225
3.780000	37.283225
3.790000	37.283225
3.800000	37.283225
3.810000	37.283225
3.820000	37.283225
3.830000	37.283225
3.840000	37.283225
3.850000	37.283225
3.860000	37.283225
3.870000	37.283225
3.880000	37.283225
3.890000	37.283225
3.900000	37.283225
3.910000	37.283225
3.920000	37.283225
3.930000	37.283225
3.940000	37.283225
3.950000	37.283225
3.960000	37.283225
3.970000	37.283225
3.980000	37.283225
3.990000	37.283225
4.000000	39.883543
4.010000	39.883543
4.020000	39.883543
4.030000	39.883543
4.040000	39.883543
4.050000	39.883543
4.060000	39.883543
4.070000	39.883543
4.080000	39.883543
4.090000	39.883543
4.100000	39.883543
4.110000	39.883543
4.120000	39.883543
4.130000	39.883543
4.140000	39.883543
4.150000	39.883543
4.160000	39.883543
4.170000	39.883543
4.180000	39.883543
4.190000	39.883543
4.200000	39.883543
4.210000	39.883543
4.220000	39.883543
4.230000	39.883543
4.240000	39.883543
4.250000	39.883543
4.260000	39.883543
4.270000	39.883543
4.280000	39.883543
4.290000	39.883543
4.300000	39.883543
4.310000	39.883543
4.320000	39.883543
4.330000	39.883543
4.340000	39.883543
4.350000	39.883543
4.360000	39.883543
4.370000	39.883543
4.380000	39.883543
4.390000	39.883543
4.400000	39.883543
4.410000	39.883543
4.420000	39.883543
4.430000	39.883543
4.440000	39.883543
4.450000	39.883543
4.460000	39.883543
4.470000	39.883543
4.480000	39.883543
4.490000	39.883543
4.500000	41.867615
4.510000	41.867615
4.520000	41.867615
4.530000	41.867615
4.540000	41.867615
4.550000	41.867615
4.560000	41.867615
4.570000	41.867615
4.580000	41.867615
4.590000	41.867615
4.600000	41.867615
4.610000	41.867615
4.620000	41.867615
4.630000	41.867615
4.640000	41.867615
4.650000	41.867615
4.660000	41.867615
4.670000	41.867615
4.680000	41.867615
4.690000	41.867615
4.700000	41.867615
4.710000	41.867615
4.720000	41.867615
4.730000	41.867615
4.740000	41.867615
4.750000	41.867615
4.760000	41.867615
4.770000	41.867615
4.780000	41.867615
4.790000	41.867615
4.800000	41.867615
4.810000	41.867615
4.820000	41.867615
4.830000	41.867615
4.840000	41.867615
4.850000	41.867615
4.860000	41.867615
4.870000	41.867615
4.880000	41.867615
4.890000	41.867615
4.900000	41.867615
4.910000	41.867615
4.920000	41.867615
4.930000	41.867615
4.940000	41.867615
4.950000	41.867615
4.960000	41.867615
4.970000	41.867615
4.980000	41.867615
4.990000	41.867615
5.000000	43.291334
5.010000	43.291334
5.020000	43.291334
5.030000	43.291334
5.040000	43.291334
5.050000	43.291334
5.060000	43.291334
5.070000	43.291334
5.080000	43.291334
5.090000	43.291334
5.100000	43.291334
5.110000	43.291334
5.120000	43.291334
5.130000	43.291334
5.140000	43.291334
5.150000	43.291334
5.160000	43.291334
5.170000	43.291334
5.180000	43.291334
5.190000	43.291334
5.200000	43.291334
5.210000	43.291334
5.220000	43.291334
5.230000	43.291334
5.240000	43.291334
5.250000	43.291334
5.260000	43.291334
5.270000	43.291334
5.280000	43.291334
5.290000	43.291334
5.300000	43.291334
5.310000	43.291334
5.320000	43.291334
5.330000	43.291334
5.340000	43.291334
5.350000	43.291334
5.360000	43.291334
5.370000	43.291334
5.380000	43.291334
5.390000	43.291334
5.400000	43.291334
5.410000	43.291334
5.420000	43.291334
5.430000	43.291334
5.440000	43.291334
5.450000	43.291334
5.460000	43.291334
5.470000	43.291334
5.480000	43.291334
5.490000	43.291334
5.500000	44.278090
5.510000	44.278090
5.520000	44.278090
5.530000	44.278090
5.540000	44.278090
5.550000	44.278090
5.560000	44.278090
5.570000	44.278090
5.580000	44.278090
5.590000	44.278090
5.600000	44.278090
5.610000	44.278090
5.620000	44.278090
5.630000	44.278090
5.640000	44.278090
5.650000	44.278090
5.660000	44.278090
5.670000	44.278090
5.680000	44.278090
5.690000	44.278090
5.700000	44.278090
5.710000	44.278090
5.720000	44.278090
5.730000	44.278090
5.740000	44.278090
5.750000	44.278090
5.760000	44.278090
5.770000	44.278090
5.780000	44.278090
5.790000	44.278090
5.800000	44.278090
5.810000	44.278090
5.820000	44.278090
5.830000	44.278090
5.840000	44.278090
5.850000	44.278090
5.860000	44.278090
5.870000	44.278090
5.880000	44.278090
5.890000	44.278090
5.900000	44.278090
5.910000	44.278090
5.920000	44.278090
5.930000	44.278090
5.940000	44.278090
5.950000	44.278090
5.960000	44.278090
5.970000	44.278090
5.980000	44.278090
5.990000	44.278090
6.000000	44.931851
6.010000	44.931851
6.020000	44.931851
6.030000	44.931851
6.040000	44.931851
6.050000	44.931851
6.060000	44.931851
6.070000	44.931851
6.080000	44.931851
6.090000	44.931851
6.100000	44.931851
6.110000	44.931851
6.120000	44.931851
6.130000	44.931851
6.140000	44.931851
6.150000	44.931851
6.160000	44.931851
6.170000	44.931851
6.180000	44.931851
6.190000	44.931851
6.200000	44.931851
6.210000	44.931851
6.220000	44.931851
6.230000	44.931851
6.240000	44.931851
6.250000	44.931851
6.260000	44.931851
6.270000	44.931851
6.280000	44.931851
6.290000	44.931851
6.300000	44.931851
6.310000	44.931851
6.320000	44.931851
6.330000	44.931851
6.340000	44.931851
6.350000	44.931851
6.360000	44.931851
6.370000	44.931851
6.380000	44.931851
6.390000	44.931851
6.400000	44.931851
6.410000	44.931851
6.420000	44.931851
6.430000	44.931851
6.440000	44.931851
6.450000	44.931851
6.460000	44.931851
6.470000	44.931851
6.480000	44.931851
6.490000	44.931851
6.500000	45.333462
6.510000	45.333462
6.520000	45.333462
6.530000	45.333462
6.540000	45.333462
6.550000	45.333462
6.560000	45.333462
6.570000	45.333462
6.580000	45.333462
6.590000	45.333462
6.600000	45.333462
6.610000	45.333462
6.620000	45.333462
6.630000	45.333462
6.640000	45.333462
6.650000	45.333462
6.660000	45.333462
6.670000	45.333462
6.680000	45.333462
6.690000	45.333462
6.700000	45.333462
6.710000	45.333462
6.720000	45.333462
6.730000	45.333462
6.740000	45.333462
6.750000	45.333462
6.760000	45.333462
6.770000	45.333462
6.780000	45.333462
6.790000	45.333462
6.800000	45.333462
6.810000	45.333462
6.820000	45.333462
6.830000	45.333462
6.840000	45.333462
6.850000	45.333462
6.860000	45.333462
6.870000	45.333462
6.880000	45.333462
6.890000	45.333462
6.900000	45.333462
6.910000	45.333462
6.920000	45.333462
6.930000	45.333462
6.940000	45.333462
6.950000	45.333462
6.960000	45.333462
6.970000	45.333462
6.980000	45.333462
6.990000	45.333462
7.000000	45.540426
7.010000	45.540426
7.020000	45.540426
7.030000	45.540426
7.040000	45.540426
7.050000	45.540426
7.060000	45.540426
7.070000	45.540426
7.080000	45.540426
7.090000	45.540426
7.100000	45.540426
7.110000	45.540426
7.120000	45.540426
7.130000	45.540426
7.140000	45.540426
7.150000	45.540426
7.160000	45.540426
7.170000	45.540426
7.180000	45.540426
7.190000	45.540426
7.200000	45.540426
7.210000	45.540426
7.220000	45.540426
7.230000	45.540426
7.240000	45.540426
7.250000	45.540426
7.260000	45.540426
7.270000	45.540426
7.280000	45.540426
7.290000	45.540426
7.300000	45.540426
7.310000	45.540426
7.320000	45.540426
7.330000	45.540426
7.340000	45.540426
7.350000	45.540426
7.360000	45.540426
7.370000	45.540426
7.380000	45.540426
7.390000	45.540426
7.400000	45.540426
7.410000	45.540426
7.420000	45.540426
7.430000	45.540426
7.440000	45.540426
7.450000	45.540426
7.460000	45.540426
7.470000	45.540426
7.480000	45.540426
7.490000	45.540426
7.500000	45.604070
7.510000	45.604070
7.520000	45.604070
7.530000	45.604070
7.540000	45.604070
7.550000	45.604070
7.560000	45.604070
7.570000	45.604070
7.580000	45.604070
7.590000	45.604070
7.600000	45.604070
7.610000	45.604070
7.620000	45.604070
7.630000	45.604070
7.640000	45.604070
7.650000	45.604070
7.660000	45.604070
7.670000	45.604070
7.680000	45.604070
7.690000	45.604070
7.700000	45.604070
7.710000	45.604070
7.720000	45.604070
7.730000	45.604070
7.740000	45.604070
7.750000	45.604070
7.760000	45.604070
7.770000	45.604070
7.780000	45.604070
7.790000	45.604070
7.800000	45.604070
7.810000	45.604070
7.820000	45.604070
7.830000	45.604070
7.840000	45.604070
7.850000	45.604070
7.860000	45.604070
7.870000	45.604070
7.880000	45.604070
7.890000	45.604070
7.900000	45.604070
7.910000	45.604070
7.920000	45.604070
7.930000	45.604070
7.940000	45.604070
7.950000	45.604070
7.960000	45.604070
7.970000	45.604070
7.980000	45.604070
7.990000	45.604070
8.000000	45.538740
8.010000	45.538740
8.020000	45.538740
8.030000	45.538740
8.040000	45.538740
8.050000	45.538740
8.060000	45.538740
8.070000	45.538740
8.080000	45.538740
8.090000	45.538740
8.100000	45.538740
8.110000	45.538740
8.120000	45.538740
8.130000	45.538740
8.140000	45.538740
8.150000	45.538740
8.160000	45.538740
8.170000	45.538740
8.180000	45.538740
8.190000	45.538740
8.200000	45.538740
8.210000	45.538740
8.220000	45.538740
8.230000	45.538740
8.240000	45.538740
8.250000	45.538740
8.260000	45.538740
8.270000	45.538740
8.280000	45.538740
8.290000	45.538740
8.300000	45.538740
8.310000	45.538740
8.320000	45.538740
8.330000	45.538740
8.340000	45.538740
8.350000	45.538740
8.360000	45.538740
8.370000	45.538740
8.380000	45.538740
8.390000	45.538740
8.400000	45.538740
8.410000	45.538740
8.420000	45.538740
8.430000	45.538740
8.440000	45.538740
8.450000	45.538740
8.460000	45.538740
8.470000	45.538740
8.480000	45.538740
8.490000	45.538740
8.500000	45.346664
8.510000	45.346664
8.520000	45.346664
8.530000	45.346664
8.540000	45.346664
8.550000	45.346664
8.560000	45.346664
8.570000	45.346664
8.580000	45.346664
8.590000	45.346664
8.600000	45.346664
8.610000	45.346664
8.620000	45.346664
8.630000	45.346664
8.640000	45.346664
8.650000	45.346664
8.660000	45.346664
8.670000	45.346664
8.680000	45.346664
8.690000	45.346664
8.700000	45.346664
8.710000	45.346664
8.720000	45.346664
8.730000	45.346664
8.740000	45.346664
8.750000	45.346664
8.760000	45.346664
8.770000	45.346664
8.780000	45.346664
8.790000	45.346664
8.800000	45.346664
8.810000	45.346664
8.820000	45.346664
8.830000	45.346664
8.840000	45.346664
8.850000	45.346664
8.860000	45.346664
8.870000	45.346664
8.880000	45.346664
8.890000	45.346664
8.900000	45.346664
8.910000	45.346664
8.920000	45.346664
8.930000	45.346664
8.940000	45.346664
8.950000	45.346664
8.960000	45.346664
8.970000	45.346664
8.980000	45.346664
8.990000	45.346664
9.000000	45.096012
9.010000	45.096012
9.020000	45.096012
9.030000	45.096012
9.040000	45.096012
9.050000	45.096012
9.060000	45.096012
9.070000	45.096012
9.080000	45.096012
9.090000	45.096012
9.100000	45.096012
9.110000	45.096012
9.120000	45.096012
9.130000	45.096012
9.140000	45.096012
9.150000	45.096012
9.160000	45.096012
9.170000	45.096012
9.180000	45.096012
9.190000	45.096012
9.200000	45.096012
9.210000	45.096012
9.220000	45.096012
9.230000	45.096012
9.240000	45.096012
9.250000	45.096012
9.260000	45.096012
9.270000	45.096012
9.280000	45.096012
9.290000	45.096012
9.300000	45.096012
9.310000	45.096012
9.320000	45.096012
9.330000	45.096012
9.340000	45.096012
9.350000	45.096012
9.360000	45.096012
9.370000	45.096012
9.380000	45.096012
9.390000	45.096012
9.400000	45.096012
9.410000	45.096012
9.420000	45.096012
9.430000	45.096012
9.440000	45.096012
9.450000	45.096012
9.460000	45.096012
9.470000	45.096012
9.480000	45.096012
9.490000	45.096012
9.500000	44.833732
9.510000	44.833732
9.520000	44.833732
9.530000	44.833732
9.540000	44.833732
9.550000	44.833732
9.560000	44.833732
9.570000	44.833732
9.580000	44.833732
9.590000	44.833732
9.600000	44.833732
9.610000	44.833732
9.620000	44.833732
9.630000	44.833732
9.640000	44.833732
9.650000	44.833732
9.660000	44.833732
9.670000	44.833732
9.680000	44.833732
9.690000	44.833732
9.700000	44.833732
9.710000	44.833732
9.720000	44.833732
9.730000	44.833732
9.740000	44.833732
9.750000	44.833732
9.760000	44.833732
