LabVIEW Measurement	
Writer_Version	2
Reader_Version	2
Separator	Tab
Decimal_Separator	.
Multi_Headings	No
X_Columns	One
Time_Pref	Absolute
Operator	biomech-dyno
Date	2023/05/23
Time	16:26:31.1792034999998606061
***End_of_Header***	
	
Channels	1	
Samples	10	
Date	2023/05/23	
Time	18:31:25.9514949999999785123	
X_Dimension	Time	
X0	0.0000000000000000E+0	
Delta_X	0.010000	
***End_of_Header***		
X_Value	Untitled	Comment
0.000000	25.121384
0.010000	25.121384
0.020000	25.121384
0.030000	25.121384
0.040000	25.121384
0.050000	25.121384
0.060000	25.121384
0.070000	25.121384
0.080000	25.121384
0.090000	25.121384
0.100000	25.121384
0.110000	25.121384
0.120000	25.121384
0.130000	25.121384
0.140000	25.121384
0.150000	25.121384
0.160000	25.121384
0.170000	25.121384
0.180000	25.121384
0.190000	25.121384
0.200000	25.121384
0.210000	25.121384
0.220000	25.121384
0.230000	25.121384
0.240000	25.121384
0.250000	25.121384
0.260000	25.121384
0.270000	25.121384
0.280000	25.121384
0.290000	25.121384
0.300000	25.121384
0.310000	25.121384
0.320000	25.121384
0.330000	25.121384
0.340000	25.121384
0.350000	25.121384
0.360000	25.121384
0.370000	25.121384
0.380000	25.121384
0.390000	25.121384
0.400000	25.121384
0.410000	25.121384
0.420000	25.121384
0.430000	25.121384
0.440000	25.121384
0.450000	25.121384
0.460000	25.121384
0.470000	25.121384
0.480000	25.121384
0.490000	25.121384
0.500000	25.176191
0.510000	25.176191
0.520000	25.176191
0.530000	25.176191
0.540000	25.176191
0.550000	25.176191
0.560000	25.176191
0.570000	25.176191
0.580000	25.176191
0.590000	25.176191
0.600000	25.176191
0.610000	25.176191
0.620000	25.176191
0.630000	25.176191
0.640000	25.176191
0.650000	25.176191
0.660000	25.176191
0.670000	25.176191
0.680000	25.176191
0.690000	25.176191
0.700000	25.176191
0.710000	25.176191
0.720000	25.176191
0.730000	25.176191
0.740000	25.176191
0.750000	25.176191
0.760000	25.176191
0.770000	25.176191
0.780000	25.176191
0.790000	25.176191
0.800000	25.176191
0.810000	25.176191
0.820000	25.176191
0.830000	25.176191
0.840000	25.176191
0.850000	25.176191
0.860000	25.176191
0.870000	25.176191
0.880000	25.176191
0.890000	25.176191
0.900000	25.176191
0.910000	25.176191
0.920000	25.176191
0.930000	25.176191
0.940000	25.176191
0.950000	25.176191
0.960000	25.176191
0.970000	25.176191
0.980000	25.176191
0.990000	25.176191
1.000000	25.749884
1.010000	25.749884
1.020000	25.749884
1.030000	25.749884
1.040000	25.749884
1.050000	25.749884
1.060000	25.749884
1.070000	25.749884
1.080000	25.749884
1.090000	25.749884
1.100000	25.749884
1.110000	25.749884
1.120000	25.749884
1.130000	25.749884
1.140000	25.749884
1.150000	25.749884
1.160000	25.749884
1.170000	25.749884
1.180000	25.749884
1.190000	25.749884
1.200000	25.749884
1.210000	25.749884
1.220000	25.749884
1.230000	25.749884
1.240000	25.749884
1.250000	25.749884
1.260000	25.749884
1.270000	25.749884
1.280000	25.749884
1.290000	25.749884
1.300000	25.749884
1.310000	25.749884
1.320000	25.749884
1.330000	25.749884
1.340000	25.749884
1.350000	25.749884
1.360000	25.749884
1.370000	25.749884
1.380000	25.749884
1.390000	25.749884
1.400000	25.749884
1.410000	25.749884
1.420000	25.749884
1.430000	25.749884
1.440000	25.749884
1.450000	25.749884
1.460000	25.749884
1.470000	25.749884
1.480000	25.749884
1.490000	25.749884
1.500000	27.101186
1.510000	27.101186
1.520000	27.101186
1.530000	27.101186
1.540000	27.101186
1.550000	27.101186
1.560000	27.101186
1.570000	27.101186
1.580000	27.101186
1.590000	27.101186
1.600000	27.101186
1.610000	27.101186
1.620000	27.101186
1.630000	27.101186
1.640000	27.101186
1.650000	27.101186
1.660000	27.101186
1.670000	27.101186
1.680000	27.101186
1.690000	27.101186
1.700000	27.101186
1.710000	27.101186
1.720000	27.101186
1.730000	27.101186
1.740000	27.101186
1.750000	27.101186
1.760000	27.101186
1.770000	27.101186
1.780000	27.101186
1.790000	27.101186
1.800000	27.101186
1.810000	27.101186
1.820000	27.101186
1.830000	27.101186
1.840000	27.101186
1.850000	27.101186
1.860000	27.101186
1.870000	27.101186
1.880000	27.101186
1.890000	27.101186
1.900000	27.101186
1.910000	27.101186
1.920000	27.101186
1.930000	27.101186
1.940000	27.101186
1.950000	27.101186
1.960000	27.101186
1.970000	27.101186
1.980000	27.101186
1.990000	27.101186
2.000000	29.083363
2.010000	29.083363
2.020000	29.083363
2.030000	29.083363
2.040000	29.083363
2.050000	29.083363
2.060000	29.083363
2.070000	29.083363
2.080000	29.083363
2.090000	29.083363
2.100000	29.083363
2.110000	29.083363
2.120000	29.083363
2.130000	29.083363
2.140000	29.083363
2.150000	29.083363
2.160000	29.083363
2.170000	29.083363
2.180000	29.083363
2.190000	29.083363
2.200000	29.083363
2.210000	29.083363
2.220000	29.083363
2.230000	29.083363
2.240000	29.083363
2.250000	29.083363
2.260000	29.083363
2.270000	29.083363
2.280000	29.083363
2.290000	29.083363
2.300000	29.083363
2.310000	29.083363
2.320000	29.083363
2.330000	29.083363
2.340000	29.083363
2.350000	29.083363
2.360000	29.083363
2.370000	29.083363
2.380000	29.083363
2.390000	29.083363
2.400000	29.083363
2.410000	29.083363
2.420000	29.083363
2.430000	29.083363
2.440000	29.083363
2.450000	29.083363
2.460000	29.083363
2.470000	29.083363
2.480000	29.083363
2.490000	29.083363
2.500000	31.553391
2.510000	31.553391
2.520000	31.553391
2.530000	31.553391
2.540000	31.553391
2.550000	31.553391
2.560000	31.553391
2.570000	31.553391
2.580000	31.553391
2.590000	31.553391
2.600000	31.553391
2.610000	31.553391
2.620000	31.553391
2.630000	31.553391
2.640000	31.553391
2.650000	31.553391
2.660000	31.553391
2.670000	31.553391
2.680000	31.553391
2.690000	31.553391
2.700000	31.553391
2.710000	31.553391
2.720000	31.553391
2.730000	31.553391
2.740000	31.553391
2.750000	31.553391
2.760000	31.553391
2.770000	31.553391
2.780000	31.553391
2.790000	31.553391
2.800000	31.553391
2.810000	31.553391
2.820000	31.553391
2.830000	31.553391
2.840000	31.553391
2.850000	31.553391
2.860000	31.553391
2.870000	31.553391
2.880000	31.553391
2.890000	31.553391
2.900000	31.553391
2.910000	31.553391
2.920000	31.553391
2.930000	31.553391
2.940000	31.553391
2.950000	31.553391
2.960000	31.553391
2.970000	31.553391
2.980000	31.553391
2.990000	31.553391
3.000000	34.406159
3.010000	34.406159
3.020000	34.406159
3.030000	34.406159
3.040000	34.406159
3.050000	34.406159
3.060000	34.406159
3.070000	34.406159
3.080000	34.406159
3.090000	34.406159
3.100000	34.406159
3.110000	34.406159
3.120000	34.406159
3.130000	34.406159
3.140000	34.406159
3.150000	34.406159
3.160000	34.406159
3.170000	34.406159
3.180000	34.406159
3.190000	34.406159
3.200000	34.406159
3.210000	34.406159
3.220000	34.406159
3.230000	34.406159
3.240000	34.406159
3.250000	34.406159
3.260000	34.406159
3.270000	34.406159
3.280000	34.406159
3.290000	34.406159
3.300000	34.406159
3.310000	34.406159
3.320000	34.406159
3.330000	34.406159
3.340000	34.406159
3.350000	34.406159
3.360000	34.406159
3.370000	34.406159
3.380000	34.406159
3.390000	34.406159
3.400000	34.406159
3.410000	34.406159
3.420000	34.406159
3.430000	34.406159
3.440000	34.406159
3.450000	34.406159
3.460000	34.406159
3.470000	34.406159
3.480000	34.406159
3.490000	34.406159
3.500000	37.470637
3.510000	37.470637
3.520000	37.470637
3.530000	37.470637
3.540000	37.470637
3.550000	37.470637
3.560000	37.470637
3.570000	37.470637
3.580000	37.470637
3.590000	37.470637
3.600000	37.470637
3.610000	37.470637
3.620000	37.470637
3.630000	37.470637
3.640000	37.470637
3.650000	37.470637
3.660000	37.470637
3.670000	37.470637
3.680000	37.470637
3.690000	37.470637
3.700000	37.470637
3.710000	37.470637
3.720000	37.470637
3.730000	37.470637
3.740000	37.470637
3.750000	37.470637
3.760000	37.470637
3.770000	37.470637
3.780000	37.470637
3.790000	37.470637
3.800000	37.470637
3.810000	37.470637
3.820000	37.470637
3.830000	37.470637
3.840000	37.470637
3.850000	37.470637
3.860000	37.470637
3.870000	37.470637
3.880000	37.470637
3.890000	37.470637
3.900000	37.470637
3.910000	37.470637
3.920000	37.470637
3.930000	37.470637
3.940000	37.470637
3.950000	37.470637
3.960000	37.470637
3.970000	37.470637
3.980000	37.470637
3.990000	37.470637
4.000000	40.141568
4.010000	40.141568
4.020000	40.141568
4.030000	40.141568
4.040000	40.141568
4.050000	40.141568
4.060000	40.141568
4.070000	40.141568
4.080000	40.141568
4.090000	40.141568
4.100000	40.141568
4.110000	40.141568
4.120000	40.141568
4.130000	40.141568
4.140000	40.141568
4.150000	40.141568
4.160000	40.141568
4.170000	40.141568
4.180000	40.141568
4.190000	40.141568
4.200000	40.141568
4.210000	40.141568
4.220000	40.141568
4.230000	40.141568
4.240000	40.141568
4.250000	40.141568
4.260000	40.141568
4.270000	40.141568
4.280000	40.141568
4.290000	40.141568
4.300000	40.141568
4.310000	40.141568
4.320000	40.141568
4.330000	40.141568
4.340000	40.141568
4.350000	40.141568
4.360000	40.141568
4.370000	40.141568
4.380000	40.141568
4.390000	40.141568
4.400000	40.141568
4.410000	40.141568
4.420000	40.141568
4.430000	40.141568
4.440000	40.141568
4.450000	40.141568
4.460000	40.141568
4.470000	40.141568
4.480000	40.141568
4.490000	40.141568
4.500000	42.175364
4.510000	42.175364
4.520000	42.175364
4.530000	42.175364
4.540000	42.175364
4.550000	42.175364
4.560000	42.175364
4.570000	42.175364
4.580000	42.175364
4.590000	42.175364
4.600000	42.175364
4.610000	42.175364
4.620000	42.175364
4.630000	42.175364
4.640000	42.175364
4.650000	42.175364
4.660000	42.175364
4.670000	42.175364
4.680000	42.175364
4.690000	42.175364
4.700000	42.175364
4.710000	42.175364
4.720000	42.175364
4.730000	42.175364
4.740000	42.175364
4.750000	42.175364
4.760000	42.175364
4.770000	42.175364
4.780000	42.175364
4.790000	42.175364
4.800000	42.175364
4.810000	42.175364
4.820000	42.175364
4.830000	42.175364
4.840000	42.175364
4.850000	42.175364
4.860000	42.175364
4.870000	42.175364
4.880000	42.175364
4.890000	42.175364
4.900000	42.175364
4.910000	42.175364
4.920000	42.175364
4.930000	42.175364
4.940000	42.175364
4.950000	42.175364
4.960000	42.175364
4.970000	42.175364
4.980000	42.175364
4.990000	42.175364
5.000000	43.670885
5.010000	43.670885
5.020000	43.670885
5.030000	43.670885
5.040000	43.670885
5.050000	43.670885
5.060000	43.670885
5.070000	43.670885
5.080000	43.670885
5.090000	43.670885
5.100000	43.670885
5.110000	43.670885
5.120000	43.670885
5.130000	43.670885
5.140000	43.670885
5.150000	43.670885
5.160000	43.670885
5.170000	43.670885
5.180000	43.670885
5.190000	43.670885
5.200000	43.670885
5.210000	43.670885
5.220000	43.670885
5.230000	43.670885
5.240000	43.670885
5.250000	43.670885
5.260000	43.670885
5.270000	43.670885
5.280000	43.670885
5.290000	43.670885
5.300000	43.670885
5.310000	43.670885
5.320000	43.670885
5.330000	43.670885
5.340000	43.670885
5.350000	43.670885
5.360000	43.670885
5.370000	43.670885
5.380000	43.670885
5.390000	43.670885
5.400000	43.670885
5.410000	43.670885
5.420000	43.670885
5.430000	43.670885
5.440000	43.670885
5.450000	43.670885
5.460000	43.670885
5.470000	43.670885
5.480000	43.670885
5.490000	43.670885
5.500000	44.721674
5.510000	44.721674
5.520000	44.721674
5.530000	44.721674
5.540000	44.721674
5.550000	44.721674
5.560000	44.721674
5.570000	44.721674
5.580000	44.721674
5.590000	44.721674
5.600000	44.721674
5.610000	44.721674
5.620000	44.721674
5.630000	44.721674
5.640000	44.721674
5.650000	44.721674
5.660000	44.721674
5.670000	44.721674
5.680000	44.721674
5.690000	44.721674
5.700000	44.721674
5.710000	44.721674
5.720000	44.721674
5.730000	44.721674
5.740000	44.721674
5.750000	44.721674
5.760000	44.721674
5.770000	44.721674
5.780000	44.721674
5.790000	44.721674
5.800000	44.721674
5.810000	44.721674
5.820000	44.721674
5.830000	44.721674
5.840000	44.721674
5.850000	44.721674
5.860000	44.721674
5.870000	44.721674
5.880000	44.721674
5.890000	44.721674
5.900000	44.721674
5.910000	44.721674
5.920000	44.721674
5.930000	44.721674
5.940000	44.721674
5.950000	44.721674
5.960000	44.721674
5.970000	44.721674
5.980000	44.721674
5.990000	44.721674
6.000000	45.421529
6.010000	45.421529
6.020000	45.421529
6.030000	45.421529
6.040000	45.421529
6.050000	45.421529
6.060000	45.421529
6.070000	45.421529
6.080000	45.421529
6.090000	45.421529
6.100000	45.421529
6.110000	45.421529
6.120000	45.421529
6.130000	45.421529
6.140000	45.421529
6.150000	45.421529
6.160000	45.421529
6.170000	45.421529
6.180000	45.421529
6.190000	45.421529
6.200000	45.421529
6.210000	45.421529
6.220000	45.421529
6.230000	45.421529
6.240000	45.421529
6.250000	45.421529
6.260000	45.421529
6.270000	45.421529
6.280000	45.421529
6.290000	45.421529
6.300000	45.421529
6.310000	45.421529
6.320000	45.421529
6.330000	45.421529
6.340000	45.421529
6.350000	45.421529
6.360000	45.421529
6.370000	45.421529
6.380000	45.421529
6.390000	45.421529
6.400000	45.421529
6.410000	45.421529
6.420000	45.421529
6.430000	45.421529
6.440000	45.421529
6.450000	45.421529
6.460000	45.421529
6.470000	45.421529
6.480000	45.421529
6.490000	45.421529
6.500000	45.852127
6.510000	45.852127
6.520000	45.852127
6.530000	45.852127
6.540000	45.852127
6.550000	45.852127
6.560000	45.852127
6.570000	45.852127
6.580000	45.852127
6.590000	45.852127
6.600000	45.852127
6.610000	45.852127
6.620000	45.852127
6.630000	45.852127
6.640000	45.852127
6.650000	45.852127
6.660000	45.852127
6.670000	45.852127
6.680000	45.852127
6.690000	45.852127
6.700000	45.852127
6.710000	45.852127
6.720000	45.852127
6.730000	45.852127
6.740000	45.852127
6.750000	45.852127
6.760000	45.852127
6.770000	45.852127
6.780000	45.852127
6.790000	45.852127
6.800000	45.852127
6.810000	45.852127
6.820000	45.852127
6.830000	45.852127
6.840000	45.852127
6.850000	45.852127
6.860000	45.852127
6.870000	45.852127
6.880000	45.852127
6.890000	45.852127
6.900000	45.852127
6.910000	45.852127
6.920000	45.852127
6.930000	45.852127
6.940000	45.852127
6.950000	45.852127
6.960000	45.852127
6.970000	45.852127
6.980000	45.852127
6.990000	45.852127
7.000000	46.080162
7.010000	46.080162
7.020000	46.080162
7.030000	46.080162
7.040000	46.080162
7.050000	46.080162
7.060000	46.080162
7.070000	46.080162
7.080000	46.080162
7.090000	46.080162
7.100000	46.080162
7.110000	46.080162
7.120000	46.080162
7.130000	46.080162
7.140000	46.080162
7.150000	46.080162
7.160000	46.080162
7.170000	46.080162
7.180000	46.080162
7.190000	46.080162
7.200000	46.080162
7.210000	46.080162
7.220000	46.080162
7.230000	46.080162
7.240000	46.080162
7.250000	46.080162
7.260000	46.080162
7.270000	46.080162
7.280000	46.080162
7.290000	46.080162
7.300000	46.080162
7.310000	46.080162
7.320000	46.080162
7.330000	46.080162
7.340000	46.080162
7.350000	46.080162
7.360000	46.080162
7.370000	46.080162
7.380000	46.080162
7.390000	46.080162
7.400000	46.080162
7.410000	46.080162
7.420000	46.080162
7.430000	46.080162
7.440000	46.080162
7.450000	46.080162
7.460000	46.080162
7.470000	46.080162
7.480000	46.080162
7.490000	46.080162
7.500000	46.156847
7.510000	46.156847
7.520000	46.156847
7.530000	46.156847
7.540000	46.156847
7.550000	46.156847
7.560000	46.156847
7.570000	46.156847
7.580000	46.156847
7.590000	46.156847
7.600000	46.156847
7.610000	46.156847
7.620000	46.156847
7.630000	46.156847
7.640000	46.156847
7.650000	46.156847
7.660000	46.156847
7.670000	46.156847
7.680000	46.156847
7.690000	46.156847
7.700000	46.156847
7.710000	46.156847
7.720000	46.156847
7.730000	46.156847
7.740000	46.156847
7.750000	46.156847
7.760000	46.156847
7.770000	46.156847
7.780000	46.156847
7.790000	46.156847
7.800000	46.156847
7.810000	46.156847
7.820000	46.156847
7.830000	46.156847
7.840000	46.156847
7.850000	46.156847
7.860000	46.156847
7.870000	46.156847
7.880000	46.156847
7.890000	46.156847
7.900000	46.156847
7.910000	46.156847
7.920000	46.156847
7.930000	46.156847
7.940000	46.156847
7.950000	46.156847
7.960000	46.156847
7.970000	46.156847
7.980000	46.156847
7.990000	46.156847
8.000000	46.114837
8.010000	46.114837
8.020000	46.114837
8.030000	46.114837
8.040000	46.114837
8.050000	46.114837
8.060000	46.114837
8.070000	46.114837
8.080000	46.114837
8.090000	46.114837
8.100000	46.114837
8.110000	46.114837
8.120000	46.114837
8.130000	46.114837
8.140000	46.114837
8.150000	46.114837
8.160000	46.114837
8.170000	46.114837
8.180000	46.114837
8.190000	46.114837
8.200000	46.114837
8.210000	46.114837
8.220000	46.114837
8.230000	46.114837
8.240000	46.114837
8.250000	46.114837
8.260000	46.114837
8.270000	46.114837
8.280000	46.114837
8.290000	46.114837
8.300000	46.114837
8.310000	46.114837
8.320000	46.114837
8.330000	46.114837
8.340000	46.114837
8.350000	46.114837
8.360000	46.114837
8.370000	46.114837
8.380000	46.114837
8.390000	46.114837
8.400000	46.114837
8.410000	46.114837
8.420000	46.114837
8.430000	46.114837
8.440000	46.114837
8.450000	46.114837
8.460000	46.114837
8.470000	46.114837
8.480000	46.114837
8.490000	46.114837
8.500000	45.977672
8.510000	45.977672
8.520000	45.977672
8.530000	45.977672
8.540000	45.977672
8.550000	45.977672
8.560000	45.977672
8.570000	45.977672
8.580000	45.977672
8.590000	45.977672
8.600000	45.977672
8.610000	45.977672
8.620000	45.977672
8.630000	45.977672
8.640000	45.977672
8.650000	45.977672
8.660000	45.977672
8.670000	45.977672
8.680000	45.977672
8.690000	45.977672
8.700000	45.977672
8.710000	45.977672
8.720000	45.977672
8.730000	45.977672
8.740000	45.977672
8.750000	45.977672
8.760000	45.977672
8.770000	45.977672
8.780000	45.977672
8.790000	45.977672
8.800000	45.977672
8.810000	45.977672
8.820000	45.977672
8.830000	45.977672
8.840000	45.977672
8.850000	45.977672
8.860000	45.977672
8.870000	45.977672
8.880000	45.977672
8.890000	45.977672
8.900000	45.977672
8.910000	45.977672
8.920000	45.977672
8.930000	45.977672
8.940000	45.977672
8.950000	45.977672
8.960000	45.977672
8.970000	45.977672
8.980000	45.977672
8.990000	45.977672
9.000000	45.769536
9.010000	45.769536
9.020000	45.769536
9.030000	45.769536
9.040000	45.769536
9.050000	45.769536
9.060000	45.769536
9.070000	45.769536
9.080000	45.769536
9.090000	45.769536
9.100000	45.769536
9.110000	45.769536
9.120000	45.769536
9.130000	45.769536
9.140000	45.769536
9.150000	45.769536
9.160000	45.769536
9.170000	45.769536
9.180000	45.769536
9.190000	45.769536
9.200000	45.769536
9.210000	45.769536
9.220000	45.769536
9.230000	45.769536
9.240000	45.769536
9.250000	45.769536
9.260000	45.769536
9.270000	45.769536
9.280000	45.769536
9.290000	45.769536
9.300000	45.769536
9.310000	45.769536
9.320000	45.769536
9.330000	45.769536
9.340000	45.769536
9.350000	45.769536
9.360000	45.769536
9.370000	45.769536
9.380000	45.769536
9.390000	45.769536
9.400000	45.769536
9.410000	45.769536
9.420000	45.769536
9.430000	45.769536
9.440000	45.769536
9.450000	45.769536
9.460000	45.769536
9.470000	45.769536
9.480000	45.769536
9.490000	45.769536
9.500000	45.510238
9.510000	45.510238
9.520000	45.510238
9.530000	45.510238
9.540000	45.510238
9.550000	45.510238
9.560000	45.510238
9.570000	45.510238
9.580000	45.510238
9.590000	45.510238
9.600000	45.510238
9.610000	45.510238
9.620000	45.510238
9.630000	45.510238
9.640000	45.510238
9.650000	45.510238
9.660000	45.510238
9.670000	45.510238
9.680000	45.510238
9.690000	45.510238
9.700000	45.510238
9.710000	45.510238
9.720000	45.510238
9.730000	45.510238
9.740000	45.510238
9.750000	45.510238
9.760000	45.510238
