LabVIEW Measurement	
Writer_Version	2
Reader_Version	2
Separator	Tab
Decimal_Separator	.
Multi_Headings	No
X_Columns	One
Time_Pref	Absolute
Operator	biomech-dyno
Date	2023/05/23
Time	16:26:31.1792034999998606061
***End_of_Header***	
	
Channels	1	
Samples	10	
Date	2023/05/23	
Time	18:57:58.6868244999995977629	
X_Dimension	Time	
X0	0.0000000000000000E+0	
Delta_X	0.010000	
***End_of_Header***		
X_Value	Untitled	Comment
0.000000	25.181253
0.010000	25.181253
0.020000	25.181253
0.030000	25.181253
0.040000	25.181253
0.050000	25.181253
0.060000	25.181253
0.070000	25.181253
0.080000	25.181253
0.090000	25.181253
0.100000	25.181253
0.110000	25.181253
0.120000	25.181253
0.130000	25.181253
0.140000	25.181253
0.150000	25.181253
0.160000	25.181253
0.170000	25.181253
0.180000	25.181253
0.190000	25.181253
0.200000	25.181253
0.210000	25.181253
0.220000	25.181253
0.230000	25.181253
0.240000	25.181253
0.250000	25.181253
0.260000	25.181253
0.270000	25.181253
0.280000	25.181253
0.290000	25.181253
0.300000	25.181253
0.310000	25.181253
0.320000	25.181253
0.330000	25.181253
0.340000	25.181253
0.350000	25.181253
0.360000	25.181253
0.370000	25.181253
0.380000	25.181253
0.390000	25.181253
0.400000	25.181253
0.410000	25.181253
0.420000	25.181253
0.430000	25.181253
0.440000	25.181253
0.450000	25.181253
0.460000	25.181253
0.470000	25.181253
0.480000	25.181253
0.490000	25.181253
0.500000	25.238173
0.510000	25.238173
0.520000	25.238173
0.530000	25.238173
0.540000	25.238173
0.550000	25.238173
0.560000	25.238173
0.570000	25.238173
0.580000	25.238173
0.590000	25.238173
0.600000	25.238173
0.610000	25.238173
0.620000	25.238173
0.630000	25.238173
0.640000	25.238173
0.650000	25.238173
0.660000	25.238173
0.670000	25.238173
0.680000	25.238173
0.690000	25.238173
0.700000	25.238173
0.710000	25.238173
0.720000	25.238173
0.730000	25.238173
0.740000	25.238173
0.750000	25.238173
0.760000	25.238173
0.770000	25.238173
0.780000	25.238173
0.790000	25.238173
0.800000	25.238173
0.810000	25.238173
0.820000	25.238173
0.830000	25.238173
0.840000	25.238173
0.850000	25.238173
0.860000	25.238173
0.870000	25.238173
0.880000	25.238173
0.890000	25.238173
0.900000	25.238173
0.910000	25.238173
0.920000	25.238173
0.930000	25.238173
0.940000	25.238173
0.950000	25.238173
0.960000	25.238173
0.970000	25.238173
0.980000	25.238173
0.990000	25.238173
1.000000	25.834566
1.010000	25.834566
1.020000	25.834566
1.030000	25.834566
1.040000	25.834566
1.050000	25.834566
1.060000	25.834566
1.070000	25.834566
1.080000	25.834566
1.090000	25.834566
1.100000	25.834566
1.110000	25.834566
1.120000	25.834566
1.130000	25.834566
1.140000	25.834566
1.150000	25.834566
1.160000	25.834566
1.170000	25.834566
1.180000	25.834566
1.190000	25.834566
1.200000	25.834566
1.210000	25.834566
1.220000	25.834566
1.230000	25.834566
1.240000	25.834566
1.250000	25.834566
1.260000	25.834566
1.270000	25.834566
1.280000	25.834566
1.290000	25.834566
1.300000	25.834566
1.310000	25.834566
1.320000	25.834566
1.330000	25.834566
1.340000	25.834566
1.350000	25.834566
1.360000	25.834566
1.370000	25.834566
1.380000	25.834566
1.390000	25.834566
1.400000	25.834566
1.410000	25.834566
1.420000	25.834566
1.430000	25.834566
1.440000	25.834566
1.450000	25.834566
1.460000	25.834566
1.470000	25.834566
1.480000	25.834566
1.490000	25.834566
1.500000	27.230333
1.510000	27.230333
1.520000	27.230333
1.530000	27.230333
1.540000	27.230333
1.550000	27.230333
1.560000	27.230333
1.570000	27.230333
1.580000	27.230333
1.590000	27.230333
1.600000	27.230333
1.610000	27.230333
1.620000	27.230333
1.630000	27.230333
1.640000	27.230333
1.650000	27.230333
1.660000	27.230333
1.670000	27.230333
1.680000	27.230333
1.690000	27.230333
1.700000	27.230333
1.710000	27.230333
1.720000	27.230333
1.730000	27.230333
1.740000	27.230333
1.750000	27.230333
1.760000	27.230333
1.770000	27.230333
1.780000	27.230333
1.790000	27.230333
1.800000	27.230333
1.810000	27.230333
1.820000	27.230333
1.830000	27.230333
1.840000	27.230333
1.850000	27.230333
1.860000	27.230333
1.870000	27.230333
1.880000	27.230333
1.890000	27.230333
1.900000	27.230333
1.910000	27.230333
1.920000	27.230333
1.930000	27.230333
1.940000	27.230333
1.950000	27.230333
1.960000	27.230333
1.970000	27.230333
1.980000	27.230333
1.990000	27.230333
2.000000	29.295392
2.010000	29.295392
2.020000	29.295392
2.030000	29.295392
2.040000	29.295392
2.050000	29.295392
2.060000	29.295392
2.070000	29.295392
2.080000	29.295392
2.090000	29.295392
2.100000	29.295392
2.110000	29.295392
2.120000	29.295392
2.130000	29.295392
2.140000	29.295392
2.150000	29.295392
2.160000	29.295392
2.170000	29.295392
2.180000	29.295392
2.190000	29.295392
2.200000	29.295392
2.210000	29.295392
2.220000	29.295392
2.230000	29.295392
2.240000	29.295392
2.250000	29.295392
2.260000	29.295392
2.270000	29.295392
2.280000	29.295392
2.290000	29.295392
2.300000	29.295392
2.310000	29.295392
2.320000	29.295392
2.330000	29.295392
2.340000	29.295392
2.350000	29.295392
2.360000	29.295392
2.370000	29.295392
2.380000	29.295392
2.390000	29.295392
2.400000	29.295392
2.410000	29.295392
2.420000	29.295392
2.430000	29.295392
2.440000	29.295392
2.450000	29.295392
2.460000	29.295392
2.470000	29.295392
2.480000	29.295392
2.490000	29.295392
2.500000	31.879986
2.510000	31.879986
2.520000	31.879986
2.530000	31.879986
2.540000	31.879986
2.550000	31.879986
2.560000	31.879986
2.570000	31.879986
2.580000	31.879986
2.590000	31.879986
2.600000	31.879986
2.610000	31.879986
2.620000	31.879986
2.630000	31.879986
2.640000	31.879986
2.650000	31.879986
2.660000	31.879986
2.670000	31.879986
2.680000	31.879986
2.690000	31.879986
2.700000	31.879986
2.710000	31.879986
2.720000	31.879986
2.730000	31.879986
2.740000	31.879986
2.750000	31.879986
2.760000	31.879986
2.770000	31.879986
2.780000	31.879986
2.790000	31.879986
2.800000	31.879986
2.810000	31.879986
2.820000	31.879986
2.830000	31.879986
2.840000	31.879986
2.850000	31.879986
2.860000	31.879986
2.870000	31.879986
2.880000	31.879986
2.890000	31.879986
2.900000	31.879986
2.910000	31.879986
2.920000	31.879986
2.930000	31.879986
2.940000	31.879986
2.950000	31.879986
2.960000	31.879986
2.970000	31.879986
2.980000	31.879986
2.990000	31.879986
3.000000	34.815414
3.010000	34.815414
3.020000	34.815414
3.030000	34.815414
3.040000	34.815414
3.050000	34.815414
3.060000	34.815414
3.070000	34.815414
3.080000	34.815414
3.090000	34.815414
3.100000	34.815414
3.110000	34.815414
3.120000	34.815414
3.130000	34.815414
3.140000	34.815414
3.150000	34.815414
3.160000	34.815414
3.170000	34.815414
3.180000	34.815414
3.190000	34.815414
3.200000	34.815414
3.210000	34.815414
3.220000	34.815414
3.230000	34.815414
3.240000	34.815414
3.250000	34.815414
3.260000	34.815414
3.270000	34.815414
3.280000	34.815414
3.290000	34.815414
3.300000	34.815414
3.310000	34.815414
3.320000	34.815414
3.330000	34.815414
3.340000	34.815414
3.350000	34.815414
3.360000	34.815414
3.370000	34.815414
3.380000	34.815414
3.390000	34.815414
3.400000	34.815414
3.410000	34.815414
3.420000	34.815414
3.430000	34.815414
3.440000	34.815414
3.450000	34.815414
3.460000	34.815414
3.470000	34.815414
3.480000	34.815414
3.490000	34.815414
3.500000	37.988199
3.510000	37.988199
3.520000	37.988199
3.530000	37.988199
3.540000	37.988199
3.550000	37.988199
3.560000	37.988199
3.570000	37.988199
3.580000	37.988199
3.590000	37.988199
3.600000	37.988199
3.610000	37.988199
3.620000	37.988199
3.630000	37.988199
3.640000	37.988199
3.650000	37.988199
3.660000	37.988199
3.670000	37.988199
3.680000	37.988199
3.690000	37.988199
3.700000	37.988199
3.710000	37.988199
3.720000	37.988199
3.730000	37.988199
3.740000	37.988199
3.750000	37.988199
3.760000	37.988199
3.770000	37.988199
3.780000	37.988199
3.790000	37.988199
3.800000	37.988199
3.810000	37.988199
3.820000	37.988199
3.830000	37.988199
3.840000	37.988199
3.850000	37.988199
3.860000	37.988199
3.870000	37.988199
3.880000	37.988199
3.890000	37.988199
3.900000	37.988199
3.910000	37.988199
3.920000	37.988199
3.930000	37.988199
3.940000	37.988199
3.950000	37.988199
3.960000	37.988199
3.970000	37.988199
3.980000	37.988199
3.990000	37.988199
4.000000	40.795735
4.010000	40.795735
4.020000	40.795735
4.030000	40.795735
4.040000	40.795735
4.050000	40.795735
4.060000	40.795735
4.070000	40.795735
4.080000	40.795735
4.090000	40.795735
4.100000	40.795735
4.110000	40.795735
4.120000	40.795735
4.130000	40.795735
4.140000	40.795735
4.150000	40.795735
4.160000	40.795735
4.170000	40.795735
4.180000	40.795735
4.190000	40.795735
4.200000	40.795735
4.210000	40.795735
4.220000	40.795735
4.230000	40.795735
4.240000	40.795735
4.250000	40.795735
4.260000	40.795735
4.270000	40.795735
4.280000	40.795735
4.290000	40.795735
4.300000	40.795735
4.310000	40.795735
4.320000	40.795735
4.330000	40.795735
4.340000	40.795735
4.350000	40.795735
4.360000	40.795735
4.370000	40.795735
4.380000	40.795735
4.390000	40.795735
4.400000	40.795735
4.410000	40.795735
4.420000	40.795735
4.430000	40.795735
4.440000	40.795735
4.450000	40.795735
4.460000	40.795735
4.470000	40.795735
4.480000	40.795735
4.490000	40.795735
4.500000	42.930258
4.510000	42.930258
4.520000	42.930258
4.530000	42.930258
4.540000	42.930258
4.550000	42.930258
4.560000	42.930258
4.570000	42.930258
4.580000	42.930258
4.590000	42.930258
4.600000	42.930258
4.610000	42.930258
4.620000	42.930258
4.630000	42.930258
4.640000	42.930258
4.650000	42.930258
4.660000	42.930258
4.670000	42.930258
4.680000	42.930258
4.690000	42.930258
4.700000	42.930258
4.710000	42.930258
4.720000	42.930258
4.730000	42.930258
4.740000	42.930258
4.750000	42.930258
4.760000	42.930258
4.770000	42.930258
4.780000	42.930258
4.790000	42.930258
4.800000	42.930258
4.810000	42.930258
4.820000	42.930258
4.830000	42.930258
4.840000	42.930258
4.850000	42.930258
4.860000	42.930258
4.870000	42.930258
4.880000	42.930258
4.890000	42.930258
4.900000	42.930258
4.910000	42.930258
4.920000	42.930258
4.930000	42.930258
4.940000	42.930258
4.950000	42.930258
4.960000	42.930258
4.970000	42.930258
4.980000	42.930258
4.990000	42.930258
5.000000	44.484683
5.010000	44.484683
5.020000	44.484683
5.030000	44.484683
5.040000	44.484683
5.050000	44.484683
5.060000	44.484683
5.070000	44.484683
5.080000	44.484683
5.090000	44.484683
5.100000	44.484683
5.110000	44.484683
5.120000	44.484683
5.130000	44.484683
5.140000	44.484683
5.150000	44.484683
5.160000	44.484683
5.170000	44.484683
5.180000	44.484683
5.190000	44.484683
5.200000	44.484683
5.210000	44.484683
5.220000	44.484683
5.230000	44.484683
5.240000	44.484683
5.250000	44.484683
5.260000	44.484683
5.270000	44.484683
5.280000	44.484683
5.290000	44.484683
5.300000	44.484683
5.310000	44.484683
5.320000	44.484683
5.330000	44.484683
5.340000	44.484683
5.350000	44.484683
5.360000	44.484683
5.370000	44.484683
5.380000	44.484683
5.390000	44.484683
5.400000	44.484683
5.410000	44.484683
5.420000	44.484683
5.430000	44.484683
5.440000	44.484683
5.450000	44.484683
5.460000	44.484683
5.470000	44.484683
5.480000	44.484683
5.490000	44.484683
5.500000	45.575094
5.510000	45.575094
5.520000	45.575094
5.530000	45.575094
5.540000	45.575094
5.550000	45.575094
5.560000	45.575094
5.570000	45.575094
5.580000	45.575094
5.590000	45.575094
5.600000	45.575094
5.610000	45.575094
5.620000	45.575094
5.630000	45.575094
5.640000	45.575094
5.650000	45.575094
5.660000	45.575094
5.670000	45.575094
5.680000	45.575094
5.690000	45.575094
5.700000	45.575094
5.710000	45.575094
5.720000	45.575094
5.730000	45.575094
5.740000	45.575094
5.750000	45.575094
5.760000	45.575094
5.770000	45.575094
5.780000	45.575094
5.790000	45.575094
5.800000	45.575094
5.810000	45.575094
5.820000	45.575094
5.830000	45.575094
5.840000	45.575094
5.850000	45.575094
5.860000	45.575094
5.870000	45.575094
5.880000	45.575094
5.890000	45.575094
5.900000	45.575094
5.910000	45.575094
5.920000	45.575094
5.930000	45.575094
5.940000	45.575094
5.950000	45.575094
5.960000	45.575094
5.970000	45.575094
5.980000	45.575094
5.990000	45.575094
6.000000	46.293871
6.010000	46.293871
6.020000	46.293871
6.030000	46.293871
6.040000	46.293871
6.050000	46.293871
6.060000	46.293871
6.070000	46.293871
6.080000	46.293871
6.090000	46.293871
6.100000	46.293871
6.110000	46.293871
6.120000	46.293871
6.130000	46.293871
6.140000	46.293871
6.150000	46.293871
6.160000	46.293871
6.170000	46.293871
6.180000	46.293871
6.190000	46.293871
6.200000	46.293871
6.210000	46.293871
6.220000	46.293871
6.230000	46.293871
6.240000	46.293871
6.250000	46.293871
6.260000	46.293871
6.270000	46.293871
6.280000	46.293871
6.290000	46.293871
6.300000	46.293871
6.310000	46.293871
6.320000	46.293871
6.330000	46.293871
6.340000	46.293871
6.350000	46.293871
6.360000	46.293871
6.370000	46.293871
6.380000	46.293871
6.390000	46.293871
6.400000	46.293871
6.410000	46.293871
6.420000	46.293871
6.430000	46.293871
6.440000	46.293871
6.450000	46.293871
6.460000	46.293871
6.470000	46.293871
6.480000	46.293871
6.490000	46.293871
6.500000	46.748149
6.510000	46.748149
6.520000	46.748149
6.530000	46.748149
6.540000	46.748149
6.550000	46.748149
6.560000	46.748149
6.570000	46.748149
6.580000	46.748149
6.590000	46.748149
6.600000	46.748149
6.610000	46.748149
6.620000	46.748149
6.630000	46.748149
6.640000	46.748149
6.650000	46.748149
6.660000	46.748149
6.670000	46.748149
6.680000	46.748149
6.690000	46.748149
6.700000	46.748149
6.710000	46.748149
6.720000	46.748149
6.730000	46.748149
6.740000	46.748149
6.750000	46.748149
6.760000	46.748149
6.770000	46.748149
6.780000	46.748149
6.790000	46.748149
6.800000	46.748149
6.810000	46.748149
6.820000	46.748149
6.830000	46.748149
6.840000	46.748149
6.850000	46.748149
6.860000	46.748149
6.870000	46.748149
6.880000	46.748149
6.890000	46.748149
6.900000	46.748149
6.910000	46.748149
6.920000	46.748149
6.930000	46.748149
6.940000	46.748149
6.950000	46.748149
6.960000	46.748149
6.970000	46.748149
6.980000	46.748149
6.990000	46.748149
7.000000	46.996502
7.010000	46.996502
7.020000	46.996502
7.030000	46.996502
7.040000	46.996502
7.050000	46.996502
7.060000	46.996502
7.070000	46.996502
7.080000	46.996502
7.090000	46.996502
7.100000	46.996502
7.110000	46.996502
7.120000	46.996502
7.130000	46.996502
7.140000	46.996502
7.150000	46.996502
7.160000	46.996502
7.170000	46.996502
7.180000	46.996502
7.190000	46.996502
7.200000	46.996502
7.210000	46.996502
7.220000	46.996502
7.230000	46.996502
7.240000	46.996502
7.250000	46.996502
7.260000	46.996502
7.270000	46.996502
7.280000	46.996502
7.290000	46.996502
7.300000	46.996502
7.310000	46.996502
7.320000	46.996502
7.330000	46.996502
7.340000	46.996502
7.350000	46.996502
7.360000	46.996502
7.370000	46.996502
7.380000	46.996502
7.390000	46.996502
7.400000	46.996502
7.410000	46.996502
7.420000	46.996502
7.430000	46.996502
7.440000	46.996502
7.450000	46.996502
7.460000	46.996502
7.470000	46.996502
7.480000	46.996502
7.490000	46.996502
7.500000	47.086821
7.510000	47.086821
7.520000	47.086821
7.530000	47.086821
7.540000	47.086821
7.550000	47.086821
7.560000	47.086821
7.570000	47.086821
7.580000	47.086821
7.590000	47.086821
7.600000	47.086821
7.610000	47.086821
7.620000	47.086821
7.630000	47.086821
7.640000	47.086821
7.650000	47.086821
7.660000	47.086821
7.670000	47.086821
7.680000	47.086821
7.690000	47.086821
7.700000	47.086821
7.710000	47.086821
7.720000	47.086821
7.730000	47.086821
7.740000	47.086821
7.750000	47.086821
7.760000	47.086821
7.770000	47.086821
7.780000	47.086821
7.790000	47.086821
7.800000	47.086821
7.810000	47.086821
7.820000	47.086821
7.830000	47.086821
7.840000	47.086821
7.850000	47.086821
7.860000	47.086821
7.870000	47.086821
7.880000	47.086821
7.890000	47.086821
7.900000	47.086821
7.910000	47.086821
7.920000	47.086821
7.930000	47.086821
7.940000	47.086821
7.950000	47.086821
7.960000	47.086821
7.970000	47.086821
7.980000	47.086821
7.990000	47.086821
8.000000	47.048638
8.010000	47.048638
8.020000	47.048638
8.030000	47.048638
8.040000	47.048638
8.050000	47.048638
8.060000	47.048638
8.070000	47.048638
8.080000	47.048638
8.090000	47.048638
8.100000	47.048638
8.110000	47.048638
8.120000	47.048638
8.130000	47.048638
8.140000	47.048638
8.150000	47.048638
8.160000	47.048638
8.170000	47.048638
8.180000	47.048638
8.190000	47.048638
8.200000	47.048638
8.210000	47.048638
8.220000	47.048638
8.230000	47.048638
8.240000	47.048638
8.250000	47.048638
8.260000	47.048638
8.270000	47.048638
8.280000	47.048638
8.290000	47.048638
8.300000	47.048638
8.310000	47.048638
8.320000	47.048638
8.330000	47.048638
8.340000	47.048638
8.350000	47.048638
8.360000	47.048638
8.370000	47.048638
8.380000	47.048638
8.390000	47.048638
8.400000	47.048638
8.410000	47.048638
8.420000	47.048638
8.430000	47.048638
8.440000	47.048638
8.450000	47.048638
8.460000	47.048638
8.470000	47.048638
8.480000	47.048638
8.490000	47.048638
8.500000	46.912072
8.510000	46.912072
8.520000	46.912072
8.530000	46.912072
8.540000	46.912072
8.550000	46.912072
8.560000	46.912072
8.570000	46.912072
8.580000	46.912072
8.590000	46.912072
8.600000	46.912072
8.610000	46.912072
8.620000	46.912072
8.630000	46.912072
8.640000	46.912072
8.650000	46.912072
8.660000	46.912072
8.670000	46.912072
8.680000	46.912072
8.690000	46.912072
8.700000	46.912072
8.710000	46.912072
8.720000	46.912072
8.730000	46.912072
8.740000	46.912072
8.750000	46.912072
8.760000	46.912072
8.770000	46.912072
8.780000	46.912072
8.790000	46.912072
8.800000	46.912072
8.810000	46.912072
8.820000	46.912072
8.830000	46.912072
8.840000	46.912072
8.850000	46.912072
8.860000	46.912072
8.870000	46.912072
8.880000	46.912072
8.890000	46.912072
8.900000	46.912072
8.910000	46.912072
8.920000	46.912072
8.930000	46.912072
8.940000	46.912072
8.950000	46.912072
8.960000	46.912072
8.970000	46.912072
8.980000	46.912072
8.990000	46.912072
9.000000	46.702487
9.010000	46.702487
9.020000	46.702487
9.030000	46.702487
9.040000	46.702487
9.050000	46.702487
9.060000	46.702487
9.070000	46.702487
9.080000	46.702487
9.090000	46.702487
9.100000	46.702487
9.110000	46.702487
9.120000	46.702487
9.130000	46.702487
9.140000	46.702487
9.150000	46.702487
9.160000	46.702487
9.170000	46.702487
9.180000	46.702487
9.190000	46.702487
9.200000	46.702487
9.210000	46.702487
9.220000	46.702487
9.230000	46.702487
9.240000	46.702487
9.250000	46.702487
9.260000	46.702487
9.270000	46.702487
9.280000	46.702487
9.290000	46.702487
9.300000	46.702487
9.310000	46.702487
9.320000	46.702487
9.330000	46.702487
9.340000	46.702487
9.350000	46.702487
9.360000	46.702487
9.370000	46.702487
9.380000	46.702487
9.390000	46.702487
9.400000	46.702487
9.410000	46.702487
9.420000	46.702487
9.430000	46.702487
9.440000	46.702487
9.450000	46.702487
9.460000	46.702487
9.470000	46.702487
9.480000	46.702487
9.490000	46.702487
9.500000	46.434472
9.510000	46.434472
9.520000	46.434472
9.530000	46.434472
9.540000	46.434472
9.550000	46.434472
9.560000	46.434472
9.570000	46.434472
9.580000	46.434472
9.590000	46.434472
9.600000	46.434472
9.610000	46.434472
9.620000	46.434472
9.630000	46.434472
9.640000	46.434472
9.650000	46.434472
9.660000	46.434472
9.670000	46.434472
9.680000	46.434472
9.690000	46.434472
9.700000	46.434472
9.710000	46.434472
9.720000	46.434472
9.730000	46.434472
9.740000	46.434472
9.750000	46.434472
9.760000	46.434472
