LabVIEW Measurement	
Writer_Version	2
Reader_Version	2
Separator	Tab
Decimal_Separator	.
Multi_Headings	No
X_Columns	One
Time_Pref	Absolute
Operator	biomech-dyno
Date	2023/05/24
Time	15:19:49.9492761999999796612
***End_of_Header***	
	
Channels	1	
Samples	10	
Date	2023/05/24	
Time	15:27:00.1628175999998690906	
X_Dimension	Time	
X0	0.0000000000000000E+0	
Delta_X	0.010000	
***End_of_Header***		
X_Value	Untitled	Comment
0.000000	25.071718
0.010000	25.071718
0.020000	25.071718
0.030000	25.071718
0.040000	25.071718
0.050000	25.071718
0.060000	25.071718
0.070000	25.071718
0.080000	25.071718
0.090000	25.071718
0.100000	25.071718
0.110000	25.071718
0.120000	25.071718
0.130000	25.071718
0.140000	25.071718
0.150000	25.071718
0.160000	25.071718
0.170000	25.071718
0.180000	25.071718
0.190000	25.071718
0.200000	25.071718
0.210000	25.071718
0.220000	25.071718
0.230000	25.071718
0.240000	25.071718
0.250000	25.071718
0.260000	25.071718
0.270000	25.071718
0.280000	25.071718
0.290000	25.071718
0.300000	25.071718
0.310000	25.071718
0.320000	25.071718
0.330000	25.071718
0.340000	25.071718
0.350000	25.071718
0.360000	25.071718
0.370000	25.071718
0.380000	25.071718
0.390000	25.071718
0.400000	25.071718
0.410000	25.071718
0.420000	25.071718
0.430000	25.071718
0.440000	25.071718
0.450000	25.071718
0.460000	25.071718
0.470000	25.071718
0.480000	25.071718
0.490000	25.071718
0.500000	25.117598
0.510000	25.117598
0.520000	25.117598
0.530000	25.117598
0.540000	25.117598
0.550000	25.117598
0.560000	25.117598
0.570000	25.117598
0.580000	25.117598
0.590000	25.117598
0.600000	25.117598
0.610000	25.117598
0.620000	25.117598
0.630000	25.117598
0.640000	25.117598
0.650000	25.117598
0.660000	25.117598
0.670000	25.117598
0.680000	25.117598
0.690000	25.117598
0.700000	25.117598
0.710000	25.117598
0.720000	25.117598
0.730000	25.117598
0.740000	25.117598
0.750000	25.117598
0.760000	25.117598
0.770000	25.117598
0.780000	25.117598
0.790000	25.117598
0.800000	25.117598
0.810000	25.117598
0.820000	25.117598
0.830000	25.117598
0.840000	25.117598
0.850000	25.117598
0.860000	25.117598
0.870000	25.117598
0.880000	25.117598
0.890000	25.117598
0.900000	25.117598
0.910000	25.117598
0.920000	25.117598
0.930000	25.117598
0.940000	25.117598
0.950000	25.117598
0.960000	25.117598
0.970000	25.117598
0.980000	25.117598
0.990000	25.117598
1.000000	25.595008
1.010000	25.595008
1.020000	25.595008
1.030000	25.595008
1.040000	25.595008
1.050000	25.595008
1.060000	25.595008
1.070000	25.595008
1.080000	25.595008
1.090000	25.595008
1.100000	25.595008
1.110000	25.595008
1.120000	25.595008
1.130000	25.595008
1.140000	25.595008
1.150000	25.595008
1.160000	25.595008
1.170000	25.595008
1.180000	25.595008
1.190000	25.595008
1.200000	25.595008
1.210000	25.595008
1.220000	25.595008
1.230000	25.595008
1.240000	25.595008
1.250000	25.595008
1.260000	25.595008
1.270000	25.595008
1.280000	25.595008
1.290000	25.595008
1.300000	25.595008
1.310000	25.595008
1.320000	25.595008
1.330000	25.595008
1.340000	25.595008
1.350000	25.595008
1.360000	25.595008
1.370000	25.595008
1.380000	25.595008
1.390000	25.595008
1.400000	25.595008
1.410000	25.595008
1.420000	25.595008
1.430000	25.595008
1.440000	25.595008
1.450000	25.595008
1.460000	25.595008
1.470000	25.595008
1.480000	25.595008
1.490000	25.595008
1.500000	26.712993
1.510000	26.712993
1.520000	26.712993
1.530000	26.712993
1.540000	26.712993
1.550000	26.712993
1.560000	26.712993
1.570000	26.712993
1.580000	26.712993
1.590000	26.712993
1.600000	26.712993
1.610000	26.712993
1.620000	26.712993
1.630000	26.712993
1.640000	26.712993
1.650000	26.712993
1.660000	26.712993
1.670000	26.712993
1.680000	26.712993
1.690000	26.712993
1.700000	26.712993
1.710000	26.712993
1.720000	26.712993
1.730000	26.712993
1.740000	26.712993
1.750000	26.712993
1.760000	26.712993
1.770000	26.712993
1.780000	26.712993
1.790000	26.712993
1.800000	26.712993
1.810000	26.712993
1.820000	26.712993
1.830000	26.712993
1.840000	26.712993
1.850000	26.712993
1.860000	26.712993
1.870000	26.712993
1.880000	26.712993
1.890000	26.712993
1.900000	26.712993
1.910000	26.712993
1.920000	26.712993
1.930000	26.712993
1.940000	26.712993
1.950000	26.712993
1.960000	26.712993
1.970000	26.712993
1.980000	26.712993
1.990000	26.712993
2.000000	28.353875
2.010000	28.353875
2.020000	28.353875
2.030000	28.353875
2.040000	28.353875
2.050000	28.353875
2.060000	28.353875
2.070000	28.353875
2.080000	28.353875
2.090000	28.353875
2.100000	28.353875
2.110000	28.353875
2.120000	28.353875
2.130000	28.353875
2.140000	28.353875
2.150000	28.353875
2.160000	28.353875
2.170000	28.353875
2.180000	28.353875
2.190000	28.353875
2.200000	28.353875
2.210000	28.353875
2.220000	28.353875
2.230000	28.353875
2.240000	28.353875
2.250000	28.353875
2.260000	28.353875
2.270000	28.353875
2.280000	28.353875
2.290000	28.353875
2.300000	28.353875
2.310000	28.353875
2.320000	28.353875
2.330000	28.353875
2.340000	28.353875
2.350000	28.353875
2.360000	28.353875
2.370000	28.353875
2.380000	28.353875
2.390000	28.353875
2.400000	28.353875
2.410000	28.353875
2.420000	28.353875
2.430000	28.353875
2.440000	28.353875
2.450000	28.353875
2.460000	28.353875
2.470000	28.353875
2.480000	28.353875
2.490000	28.353875
2.500000	30.388346
2.510000	30.388346
2.520000	30.388346
2.530000	30.388346
2.540000	30.388346
2.550000	30.388346
2.560000	30.388346
2.570000	30.388346
2.580000	30.388346
2.590000	30.388346
2.600000	30.388346
2.610000	30.388346
2.620000	30.388346
2.630000	30.388346
2.640000	30.388346
2.650000	30.388346
2.660000	30.388346
2.670000	30.388346
2.680000	30.388346
2.690000	30.388346
2.700000	30.388346
2.710000	30.388346
2.720000	30.388346
2.730000	30.388346
2.740000	30.388346
2.750000	30.388346
2.760000	30.388346
2.770000	30.388346
2.780000	30.388346
2.790000	30.388346
2.800000	30.388346
2.810000	30.388346
2.820000	30.388346
2.830000	30.388346
2.840000	30.388346
2.850000	30.388346
2.860000	30.388346
2.870000	30.388346
2.880000	30.388346
2.890000	30.388346
2.900000	30.388346
2.910000	30.388346
2.920000	30.388346
2.930000	30.388346
2.940000	30.388346
2.950000	30.388346
2.960000	30.388346
2.970000	30.388346
2.980000	30.388346
2.990000	30.388346
3.000000	32.743013
3.010000	32.743013
3.020000	32.743013
3.030000	32.743013
3.040000	32.743013
3.050000	32.743013
3.060000	32.743013
3.070000	32.743013
3.080000	32.743013
3.090000	32.743013
3.100000	32.743013
3.110000	32.743013
3.120000	32.743013
3.130000	32.743013
3.140000	32.743013
3.150000	32.743013
3.160000	32.743013
3.170000	32.743013
3.180000	32.743013
3.190000	32.743013
3.200000	32.743013
3.210000	32.743013
3.220000	32.743013
3.230000	32.743013
3.240000	32.743013
3.250000	32.743013
3.260000	32.743013
3.270000	32.743013
3.280000	32.743013
3.290000	32.743013
3.300000	32.743013
3.310000	32.743013
3.320000	32.743013
3.330000	32.743013
3.340000	32.743013
3.350000	32.743013
3.360000	32.743013
3.370000	32.743013
3.380000	32.743013
3.390000	32.743013
3.400000	32.743013
3.410000	32.743013
3.420000	32.743013
3.430000	32.743013
3.440000	32.743013
3.450000	32.743013
3.460000	32.743013
3.470000	32.743013
3.480000	32.743013
3.490000	32.743013
3.500000	35.213273
3.510000	35.213273
3.520000	35.213273
3.530000	35.213273
3.540000	35.213273
3.550000	35.213273
3.560000	35.213273
3.570000	35.213273
3.580000	35.213273
3.590000	35.213273
3.600000	35.213273
3.610000	35.213273
3.620000	35.213273
3.630000	35.213273
3.640000	35.213273
3.650000	35.213273
3.660000	35.213273
3.670000	35.213273
3.680000	35.213273
3.690000	35.213273
3.700000	35.213273
3.710000	35.213273
3.720000	35.213273
3.730000	35.213273
3.740000	35.213273
3.750000	35.213273
3.760000	35.213273
3.770000	35.213273
3.780000	35.213273
3.790000	35.213273
3.800000	35.213273
3.810000	35.213273
3.820000	35.213273
3.830000	35.213273
3.840000	35.213273
3.850000	35.213273
3.860000	35.213273
3.870000	35.213273
3.880000	35.213273
3.890000	35.213273
3.900000	35.213273
3.910000	35.213273
3.920000	35.213273
3.930000	35.213273
3.940000	35.213273
3.950000	35.213273
3.960000	35.213273
3.970000	35.213273
3.980000	35.213273
3.990000	35.213273
4.000000	37.314855
4.010000	37.314855
4.020000	37.314855
4.030000	37.314855
4.040000	37.314855
4.050000	37.314855
4.060000	37.314855
4.070000	37.314855
4.080000	37.314855
4.090000	37.314855
4.100000	37.314855
4.110000	37.314855
4.120000	37.314855
4.130000	37.314855
4.140000	37.314855
4.150000	37.314855
4.160000	37.314855
4.170000	37.314855
4.180000	37.314855
4.190000	37.314855
4.200000	37.314855
4.210000	37.314855
4.220000	37.314855
4.230000	37.314855
4.240000	37.314855
4.250000	37.314855
4.260000	37.314855
4.270000	37.314855
4.280000	37.314855
4.290000	37.314855
4.300000	37.314855
4.310000	37.314855
4.320000	37.314855
4.330000	37.314855
4.340000	37.314855
4.350000	37.314855
4.360000	37.314855
4.370000	37.314855
4.380000	37.314855
4.390000	37.314855
4.400000	37.314855
4.410000	37.314855
4.420000	37.314855
4.430000	37.314855
4.440000	37.314855
4.450000	37.314855
4.460000	37.314855
4.470000	37.314855
4.480000	37.314855
4.490000	37.314855
4.500000	38.887954
4.510000	38.887954
4.520000	38.887954
4.530000	38.887954
4.540000	38.887954
4.550000	38.887954
4.560000	38.887954
4.570000	38.887954
4.580000	38.887954
4.590000	38.887954
4.600000	38.887954
4.610000	38.887954
4.620000	38.887954
4.630000	38.887954
4.640000	38.887954
4.650000	38.887954
4.660000	38.887954
4.670000	38.887954
4.680000	38.887954
4.690000	38.887954
4.700000	38.887954
4.710000	38.887954
4.720000	38.887954
4.730000	38.887954
4.740000	38.887954
4.750000	38.887954
4.760000	38.887954
4.770000	38.887954
4.780000	38.887954
4.790000	38.887954
4.800000	38.887954
4.810000	38.887954
4.820000	38.887954
4.830000	38.887954
4.840000	38.887954
4.850000	38.887954
4.860000	38.887954
4.870000	38.887954
4.880000	38.887954
4.890000	38.887954
4.900000	38.887954
4.910000	38.887954
4.920000	38.887954
4.930000	38.887954
4.940000	38.887954
4.950000	38.887954
4.960000	38.887954
4.970000	38.887954
4.980000	38.887954
4.990000	38.887954
5.000000	40.016208
5.010000	40.016208
5.020000	40.016208
5.030000	40.016208
5.040000	40.016208
5.050000	40.016208
5.060000	40.016208
5.070000	40.016208
5.080000	40.016208
5.090000	40.016208
5.100000	40.016208
5.110000	40.016208
5.120000	40.016208
5.130000	40.016208
5.140000	40.016208
5.150000	40.016208
5.160000	40.016208
5.170000	40.016208
5.180000	40.016208
5.190000	40.016208
5.200000	40.016208
5.210000	40.016208
5.220000	40.016208
5.230000	40.016208
5.240000	40.016208
5.250000	40.016208
5.260000	40.016208
5.270000	40.016208
5.280000	40.016208
5.290000	40.016208
5.300000	40.016208
5.310000	40.016208
5.320000	40.016208
5.330000	40.016208
5.340000	40.016208
5.350000	40.016208
5.360000	40.016208
5.370000	40.016208
5.380000	40.016208
5.390000	40.016208
5.400000	40.016208
5.410000	40.016208
5.420000	40.016208
5.430000	40.016208
5.440000	40.016208
5.450000	40.016208
5.460000	40.016208
5.470000	40.016208
5.480000	40.016208
5.490000	40.016208
5.500000	40.803252
5.510000	40.803252
5.520000	40.803252
5.530000	40.803252
5.540000	40.803252
5.550000	40.803252
5.560000	40.803252
5.570000	40.803252
5.580000	40.803252
5.590000	40.803252
5.600000	40.803252
5.610000	40.803252
5.620000	40.803252
5.630000	40.803252
5.640000	40.803252
5.650000	40.803252
5.660000	40.803252
5.670000	40.803252
5.680000	40.803252
5.690000	40.803252
5.700000	40.803252
5.710000	40.803252
5.720000	40.803252
5.730000	40.803252
5.740000	40.803252
5.750000	40.803252
5.760000	40.803252
5.770000	40.803252
5.780000	40.803252
5.790000	40.803252
5.800000	40.803252
5.810000	40.803252
5.820000	40.803252
5.830000	40.803252
5.840000	40.803252
5.850000	40.803252
5.860000	40.803252
5.870000	40.803252
5.880000	40.803252
5.890000	40.803252
5.900000	40.803252
5.910000	40.803252
5.920000	40.803252
5.930000	40.803252
5.940000	40.803252
5.950000	40.803252
5.960000	40.803252
5.970000	40.803252
5.980000	40.803252
5.990000	40.803252
6.000000	41.321285
6.010000	41.321285
6.020000	41.321285
6.030000	41.321285
6.040000	41.321285
6.050000	41.321285
6.060000	41.321285
6.070000	41.321285
6.080000	41.321285
6.090000	41.321285
6.100000	41.321285
6.110000	41.321285
6.120000	41.321285
6.130000	41.321285
6.140000	41.321285
6.150000	41.321285
6.160000	41.321285
6.170000	41.321285
6.180000	41.321285
6.190000	41.321285
6.200000	41.321285
6.210000	41.321285
6.220000	41.321285
6.230000	41.321285
6.240000	41.321285
6.250000	41.321285
6.260000	41.321285
6.270000	41.321285
6.280000	41.321285
6.290000	41.321285
6.300000	41.321285
6.310000	41.321285
6.320000	41.321285
6.330000	41.321285
6.340000	41.321285
6.350000	41.321285
6.360000	41.321285
6.370000	41.321285
6.380000	41.321285
6.390000	41.321285
6.400000	41.321285
6.410000	41.321285
6.420000	41.321285
6.430000	41.321285
6.440000	41.321285
6.450000	41.321285
6.460000	41.321285
6.470000	41.321285
6.480000	41.321285
6.490000	41.321285
6.500000	41.630903
6.510000	41.630903
6.520000	41.630903
6.530000	41.630903
6.540000	41.630903
6.550000	41.630903
6.560000	41.630903
6.570000	41.630903
6.580000	41.630903
6.590000	41.630903
6.600000	41.630903
6.610000	41.630903
6.620000	41.630903
6.630000	41.630903
6.640000	41.630903
6.650000	41.630903
6.660000	41.630903
6.670000	41.630903
6.680000	41.630903
6.690000	41.630903
6.700000	41.630903
6.710000	41.630903
6.720000	41.630903
6.730000	41.630903
6.740000	41.630903
6.750000	41.630903
6.760000	41.630903
6.770000	41.630903
6.780000	41.630903
6.790000	41.630903
6.800000	41.630903
6.810000	41.630903
6.820000	41.630903
6.830000	41.630903
6.840000	41.630903
6.850000	41.630903
6.860000	41.630903
6.870000	41.630903
6.880000	41.630903
6.890000	41.630903
6.900000	41.630903
6.910000	41.630903
6.920000	41.630903
6.930000	41.630903
6.940000	41.630903
6.950000	41.630903
6.960000	41.630903
6.970000	41.630903
6.980000	41.630903
6.990000	41.630903
7.000000	41.774523
7.010000	41.774523
7.020000	41.774523
7.030000	41.774523
7.040000	41.774523
7.050000	41.774523
7.060000	41.774523
7.070000	41.774523
7.080000	41.774523
7.090000	41.774523
7.100000	41.774523
7.110000	41.774523
7.120000	41.774523
7.130000	41.774523
7.140000	41.774523
7.150000	41.774523
7.160000	41.774523
7.170000	41.774523
7.180000	41.774523
7.190000	41.774523
7.200000	41.774523
7.210000	41.774523
7.220000	41.774523
7.230000	41.774523
7.240000	41.774523
7.250000	41.774523
7.260000	41.774523
7.270000	41.774523
7.280000	41.774523
7.290000	41.774523
7.300000	41.774523
7.310000	41.774523
7.320000	41.774523
7.330000	41.774523
7.340000	41.774523
7.350000	41.774523
7.360000	41.774523
7.370000	41.774523
7.380000	41.774523
7.390000	41.774523
7.400000	41.774523
7.410000	41.774523
7.420000	41.774523
7.430000	41.774523
7.440000	41.774523
7.450000	41.774523
7.460000	41.774523
7.470000	41.774523
7.480000	41.774523
7.490000	41.774523
7.500000	41.800488
7.510000	41.800488
7.520000	41.800488
7.530000	41.800488
7.540000	41.800488
7.550000	41.800488
7.560000	41.800488
7.570000	41.800488
7.580000	41.800488
7.590000	41.800488
7.600000	41.800488
7.610000	41.800488
7.620000	41.800488
7.630000	41.800488
7.640000	41.800488
7.650000	41.800488
7.660000	41.800488
7.670000	41.800488
7.680000	41.800488
7.690000	41.800488
7.700000	41.800488
7.710000	41.800488
7.720000	41.800488
7.730000	41.800488
7.740000	41.800488
7.750000	41.800488
7.760000	41.800488
7.770000	41.800488
7.780000	41.800488
7.790000	41.800488
7.800000	41.800488
7.810000	41.800488
7.820000	41.800488
7.830000	41.800488
7.840000	41.800488
7.850000	41.800488
7.860000	41.800488
7.870000	41.800488
7.880000	41.800488
7.890000	41.800488
7.900000	41.800488
7.910000	41.800488
7.920000	41.800488
7.930000	41.800488
7.940000	41.800488
7.950000	41.800488
7.960000	41.800488
7.970000	41.800488
7.980000	41.800488
7.990000	41.800488
8.000000	41.727683
8.010000	41.727683
8.020000	41.727683
8.030000	41.727683
8.040000	41.727683
8.050000	41.727683
8.060000	41.727683
8.070000	41.727683
8.080000	41.727683
8.090000	41.727683
8.100000	41.727683
8.110000	41.727683
8.120000	41.727683
8.130000	41.727683
8.140000	41.727683
8.150000	41.727683
8.160000	41.727683
8.170000	41.727683
8.180000	41.727683
8.190000	41.727683
8.200000	41.727683
8.210000	41.727683
8.220000	41.727683
8.230000	41.727683
8.240000	41.727683
8.250000	41.727683
8.260000	41.727683
8.270000	41.727683
8.280000	41.727683
8.290000	41.727683
8.300000	41.727683
8.310000	41.727683
8.320000	41.727683
8.330000	41.727683
8.340000	41.727683
8.350000	41.727683
8.360000	41.727683
8.370000	41.727683
8.380000	41.727683
8.390000	41.727683
8.400000	41.727683
8.410000	41.727683
8.420000	41.727683
8.430000	41.727683
8.440000	41.727683
8.450000	41.727683
8.460000	41.727683
8.470000	41.727683
8.480000	41.727683
8.490000	41.727683
8.500000	41.592990
8.510000	41.592990
8.520000	41.592990
8.530000	41.592990
8.540000	41.592990
8.550000	41.592990
8.560000	41.592990
8.570000	41.592990
8.580000	41.592990
8.590000	41.592990
8.600000	41.592990
8.610000	41.592990
8.620000	41.592990
8.630000	41.592990
8.640000	41.592990
8.650000	41.592990
8.660000	41.592990
8.670000	41.592990
8.680000	41.592990
8.690000	41.592990
8.700000	41.592990
8.710000	41.592990
8.720000	41.592990
8.730000	41.592990
8.740000	41.592990
8.750000	41.592990
8.760000	41.592990
8.770000	41.592990
8.780000	41.592990
8.790000	41.592990
8.800000	41.592990
8.810000	41.592990
8.820000	41.592990
8.830000	41.592990
8.840000	41.592990
8.850000	41.592990
8.860000	41.592990
8.870000	41.592990
8.880000	41.592990
8.890000	41.592990
8.900000	41.592990
8.910000	41.592990
8.920000	41.592990
8.930000	41.592990
8.940000	41.592990
8.950000	41.592990
8.960000	41.592990
8.970000	41.592990
8.980000	41.592990
8.990000	41.592990
9.000000	41.412313
9.010000	41.412313
9.020000	41.412313
9.030000	41.412313
9.040000	41.412313
9.050000	41.412313
9.060000	41.412313
9.070000	41.412313
9.080000	41.412313
9.090000	41.412313
9.100000	41.412313
9.110000	41.412313
9.120000	41.412313
9.130000	41.412313
9.140000	41.412313
9.150000	41.412313
9.160000	41.412313
9.170000	41.412313
9.180000	41.412313
9.190000	41.412313
9.200000	41.412313
9.210000	41.412313
9.220000	41.412313
9.230000	41.412313
9.240000	41.412313
9.250000	41.412313
9.260000	41.412313
9.270000	41.412313
9.280000	41.412313
9.290000	41.412313
9.300000	41.412313
9.310000	41.412313
9.320000	41.412313
9.330000	41.412313
9.340000	41.412313
9.350000	41.412313
9.360000	41.412313
9.370000	41.412313
9.380000	41.412313
9.390000	41.412313
9.400000	41.412313
9.410000	41.412313
9.420000	41.412313
9.430000	41.412313
9.440000	41.412313
9.450000	41.412313
9.460000	41.412313
9.470000	41.412313
9.480000	41.412313
9.490000	41.412313
9.500000	41.192866
9.510000	41.192866
9.520000	41.192866
9.530000	41.192866
9.540000	41.192866
9.550000	41.192866
9.560000	41.192866
9.570000	41.192866
9.580000	41.192866
9.590000	41.192866
9.600000	41.192866
9.610000	41.192866
9.620000	41.192866
9.630000	41.192866
9.640000	41.192866
9.650000	41.192866
9.660000	41.192866
9.670000	41.192866
9.680000	41.192866
9.690000	41.192866
9.700000	41.192866
9.710000	41.192866
9.720000	41.192866
9.730000	41.192866
9.740000	41.192866
9.750000	41.192866
9.760000	41.192866
