LabVIEW Measurement	
Writer_Version	2
Reader_Version	2
Separator	Tab
Decimal_Separator	.
Multi_Headings	No
X_Columns	One
Time_Pref	Absolute
Operator	biomech-dyno
Date	2023/04/27
Time	17:41:55.9338632999999876419
***End_of_Header***	
	
Channels	1	
Samples	10	
Date	2023/04/27	
Time	17:53:29.5892886999996482664	
X_Dimension	Time	
X0	0.0000000000000000E+0	
Delta_X	0.010000	
***End_of_Header***		
X_Value	Untitled	Comment
0.000000	24.476091
0.010000	24.476091
0.020000	24.476091
0.030000	24.476091
0.040000	24.476091
0.050000	24.476091
0.060000	24.476091
0.070000	24.476091
0.080000	24.476091
0.090000	24.476091
0.100000	24.476091
0.110000	24.476091
0.120000	24.476091
0.130000	24.476091
0.140000	24.476091
0.150000	24.476091
0.160000	24.476091
0.170000	24.476091
0.180000	24.476091
0.190000	24.476091
0.200000	24.476091
0.210000	24.476091
0.220000	24.476091
0.230000	24.476091
0.240000	24.476091
0.250000	24.476091
0.260000	24.476091
0.270000	24.476091
0.280000	24.476091
0.290000	24.476091
0.300000	24.476091
0.310000	24.476091
0.320000	24.476091
0.330000	24.476091
0.340000	24.476091
0.350000	24.476091
0.360000	24.476091
0.370000	24.476091
0.380000	24.476091
0.390000	24.476091
0.400000	24.476091
0.410000	24.476091
0.420000	24.476091
0.430000	24.476091
0.440000	24.476091
0.450000	24.476091
0.460000	24.476091
0.470000	24.476091
0.480000	24.476091
0.490000	24.476091
0.500000	24.471241
0.510000	24.471241
0.520000	24.471241
0.530000	24.471241
0.540000	24.471241
0.550000	24.471241
0.560000	24.471241
0.570000	24.471241
0.580000	24.471241
0.590000	24.471241
0.600000	24.471241
0.610000	24.471241
0.620000	24.471241
0.630000	24.471241
0.640000	24.471241
0.650000	24.471241
0.660000	24.471241
0.670000	24.471241
0.680000	24.471241
0.690000	24.471241
0.700000	24.471241
0.710000	24.471241
0.720000	24.471241
0.730000	24.471241
0.740000	24.471241
0.750000	24.471241
0.760000	24.471241
0.770000	24.471241
0.780000	24.471241
0.790000	24.471241
0.800000	24.471241
0.810000	24.471241
0.820000	24.471241
0.830000	24.471241
0.840000	24.471241
0.850000	24.471241
0.860000	24.471241
0.870000	24.471241
0.880000	24.471241
0.890000	24.471241
0.900000	24.471241
0.910000	24.471241
0.920000	24.471241
0.930000	24.471241
0.940000	24.471241
0.950000	24.471241
0.960000	24.471241
0.970000	24.471241
0.980000	24.471241
0.990000	24.471241
1.000000	24.521935
1.010000	24.521935
1.020000	24.521935
1.030000	24.521935
1.040000	24.521935
1.050000	24.521935
1.060000	24.521935
1.070000	24.521935
1.080000	24.521935
1.090000	24.521935
1.100000	24.521935
1.110000	24.521935
1.120000	24.521935
1.130000	24.521935
1.140000	24.521935
1.150000	24.521935
1.160000	24.521935
1.170000	24.521935
1.180000	24.521935
1.190000	24.521935
1.200000	24.521935
1.210000	24.521935
1.220000	24.521935
1.230000	24.521935
1.240000	24.521935
1.250000	24.521935
1.260000	24.521935
1.270000	24.521935
1.280000	24.521935
1.290000	24.521935
1.300000	24.521935
1.310000	24.521935
1.320000	24.521935
1.330000	24.521935
1.340000	24.521935
1.350000	24.521935
1.360000	24.521935
1.370000	24.521935
1.380000	24.521935
1.390000	24.521935
1.400000	24.521935
1.410000	24.521935
1.420000	24.521935
1.430000	24.521935
1.440000	24.521935
1.450000	24.521935
1.460000	24.521935
1.470000	24.521935
1.480000	24.521935
1.490000	24.521935
1.500000	24.653696
1.510000	24.653696
1.520000	24.653696
1.530000	24.653696
1.540000	24.653696
1.550000	24.653696
1.560000	24.653696
1.570000	24.653696
1.580000	24.653696
1.590000	24.653696
1.600000	24.653696
1.610000	24.653696
1.620000	24.653696
1.630000	24.653696
1.640000	24.653696
1.650000	24.653696
1.660000	24.653696
1.670000	24.653696
1.680000	24.653696
1.690000	24.653696
1.700000	24.653696
1.710000	24.653696
1.720000	24.653696
1.730000	24.653696
1.740000	24.653696
1.750000	24.653696
1.760000	24.653696
1.770000	24.653696
1.780000	24.653696
1.790000	24.653696
1.800000	24.653696
1.810000	24.653696
1.820000	24.653696
1.830000	24.653696
1.840000	24.653696
1.850000	24.653696
1.860000	24.653696
1.870000	24.653696
1.880000	24.653696
1.890000	24.653696
1.900000	24.653696
1.910000	24.653696
1.920000	24.653696
1.930000	24.653696
1.940000	24.653696
1.950000	24.653696
1.960000	24.653696
1.970000	24.653696
1.980000	24.653696
1.990000	24.653696
2.000000	24.849717
2.010000	24.849717
2.020000	24.849717
2.030000	24.849717
2.040000	24.849717
2.050000	24.849717
2.060000	24.849717
2.070000	24.849717
2.080000	24.849717
2.090000	24.849717
2.100000	24.849717
2.110000	24.849717
2.120000	24.849717
2.130000	24.849717
2.140000	24.849717
2.150000	24.849717
2.160000	24.849717
2.170000	24.849717
2.180000	24.849717
2.190000	24.849717
2.200000	24.849717
2.210000	24.849717
2.220000	24.849717
2.230000	24.849717
2.240000	24.849717
2.250000	24.849717
2.260000	24.849717
2.270000	24.849717
2.280000	24.849717
2.290000	24.849717
2.300000	24.849717
2.310000	24.849717
2.320000	24.849717
2.330000	24.849717
2.340000	24.849717
2.350000	24.849717
2.360000	24.849717
2.370000	24.849717
2.380000	24.849717
2.390000	24.849717
2.400000	24.849717
2.410000	24.849717
2.420000	24.849717
2.430000	24.849717
2.440000	24.849717
2.450000	24.849717
2.460000	24.849717
2.470000	24.849717
2.480000	24.849717
2.490000	24.849717
2.500000	25.096105
2.510000	25.096105
2.520000	25.096105
2.530000	25.096105
2.540000	25.096105
2.550000	25.096105
2.560000	25.096105
2.570000	25.096105
2.580000	25.096105
2.590000	25.096105
2.600000	25.096105
2.610000	25.096105
2.620000	25.096105
2.630000	25.096105
2.640000	25.096105
2.650000	25.096105
2.660000	25.096105
2.670000	25.096105
2.680000	25.096105
2.690000	25.096105
2.700000	25.096105
2.710000	25.096105
2.720000	25.096105
2.730000	25.096105
2.740000	25.096105
2.750000	25.096105
2.760000	25.096105
2.770000	25.096105
2.780000	25.096105
2.790000	25.096105
2.800000	25.096105
2.810000	25.096105
2.820000	25.096105
2.830000	25.096105
2.840000	25.096105
2.850000	25.096105
2.860000	25.096105
2.870000	25.096105
2.880000	25.096105
2.890000	25.096105
2.900000	25.096105
2.910000	25.096105
2.920000	25.096105
2.930000	25.096105
2.940000	25.096105
2.950000	25.096105
2.960000	25.096105
2.970000	25.096105
2.980000	25.096105
2.990000	25.096105
3.000000	25.363142
3.010000	25.363142
3.020000	25.363142
3.030000	25.363142
3.040000	25.363142
3.050000	25.363142
3.060000	25.363142
3.070000	25.363142
3.080000	25.363142
3.090000	25.363142
3.100000	25.363142
3.110000	25.363142
3.120000	25.363142
3.130000	25.363142
3.140000	25.363142
3.150000	25.363142
3.160000	25.363142
3.170000	25.363142
3.180000	25.363142
3.190000	25.363142
3.200000	25.363142
3.210000	25.363142
3.220000	25.363142
3.230000	25.363142
3.240000	25.363142
3.250000	25.363142
3.260000	25.363142
3.270000	25.363142
3.280000	25.363142
3.290000	25.363142
3.300000	25.363142
3.310000	25.363142
3.320000	25.363142
3.330000	25.363142
3.340000	25.363142
3.350000	25.363142
3.360000	25.363142
3.370000	25.363142
3.380000	25.363142
3.390000	25.363142
3.400000	25.363142
3.410000	25.363142
3.420000	25.363142
3.430000	25.363142
3.440000	25.363142
3.450000	25.363142
3.460000	25.363142
3.470000	25.363142
3.480000	25.363142
3.490000	25.363142
3.500000	25.587364
3.510000	25.587364
3.520000	25.587364
3.530000	25.587364
3.540000	25.587364
3.550000	25.587364
3.560000	25.587364
3.570000	25.587364
3.580000	25.587364
3.590000	25.587364
3.600000	25.587364
3.610000	25.587364
3.620000	25.587364
3.630000	25.587364
3.640000	25.587364
3.650000	25.587364
3.660000	25.587364
3.670000	25.587364
3.680000	25.587364
3.690000	25.587364
3.700000	25.587364
3.710000	25.587364
3.720000	25.587364
3.730000	25.587364
3.740000	25.587364
3.750000	25.587364
3.760000	25.587364
3.770000	25.587364
3.780000	25.587364
3.790000	25.587364
3.800000	25.587364
3.810000	25.587364
3.820000	25.587364
3.830000	25.587364
3.840000	25.587364
3.850000	25.587364
3.860000	25.587364
3.870000	25.587364
3.880000	25.587364
3.890000	25.587364
3.900000	25.587364
3.910000	25.587364
3.920000	25.587364
3.930000	25.587364
3.940000	25.587364
3.950000	25.587364
3.960000	25.587364
3.970000	25.587364
3.980000	25.587364
3.990000	25.587364
4.000000	25.752288
4.010000	25.752288
4.020000	25.752288
4.030000	25.752288
4.040000	25.752288
4.050000	25.752288
4.060000	25.752288
4.070000	25.752288
4.080000	25.752288
4.090000	25.752288
4.100000	25.752288
4.110000	25.752288
4.120000	25.752288
4.130000	25.752288
4.140000	25.752288
4.150000	25.752288
4.160000	25.752288
4.170000	25.752288
4.180000	25.752288
4.190000	25.752288
4.200000	25.752288
4.210000	25.752288
4.220000	25.752288
4.230000	25.752288
4.240000	25.752288
4.250000	25.752288
4.260000	25.752288
4.270000	25.752288
4.280000	25.752288
4.290000	25.752288
4.300000	25.752288
4.310000	25.752288
4.320000	25.752288
4.330000	25.752288
4.340000	25.752288
4.350000	25.752288
4.360000	25.752288
4.370000	25.752288
4.380000	25.752288
4.390000	25.752288
4.400000	25.752288
4.410000	25.752288
4.420000	25.752288
4.430000	25.752288
4.440000	25.752288
4.450000	25.752288
4.460000	25.752288
4.470000	25.752288
4.480000	25.752288
4.490000	25.752288
4.500000	25.868349
4.510000	25.868349
4.520000	25.868349
4.530000	25.868349
4.540000	25.868349
4.550000	25.868349
4.560000	25.868349
4.570000	25.868349
4.580000	25.868349
4.590000	25.868349
4.600000	25.868349
4.610000	25.868349
4.620000	25.868349
4.630000	25.868349
4.640000	25.868349
4.650000	25.868349
4.660000	25.868349
4.670000	25.868349
4.680000	25.868349
4.690000	25.868349
4.700000	25.868349
4.710000	25.868349
4.720000	25.868349
4.730000	25.868349
4.740000	25.868349
4.750000	25.868349
4.760000	25.868349
4.770000	25.868349
4.780000	25.868349
4.790000	25.868349
4.800000	25.868349
4.810000	25.868349
4.820000	25.868349
4.830000	25.868349
4.840000	25.868349
4.850000	25.868349
4.860000	25.868349
4.870000	25.868349
4.880000	25.868349
4.890000	25.868349
4.900000	25.868349
4.910000	25.868349
4.920000	25.868349
4.930000	25.868349
4.940000	25.868349
4.950000	25.868349
4.960000	25.868349
4.970000	25.868349
4.980000	25.868349
4.990000	25.868349
5.000000	25.948184
5.010000	25.948184
5.020000	25.948184
5.030000	25.948184
5.040000	25.948184
5.050000	25.948184
5.060000	25.948184
5.070000	25.948184
5.080000	25.948184
5.090000	25.948184
5.100000	25.948184
5.110000	25.948184
5.120000	25.948184
5.130000	25.948184
5.140000	25.948184
5.150000	25.948184
5.160000	25.948184
5.170000	25.948184
5.180000	25.948184
5.190000	25.948184
5.200000	25.948184
5.210000	25.948184
5.220000	25.948184
5.230000	25.948184
5.240000	25.948184
5.250000	25.948184
5.260000	25.948184
5.270000	25.948184
5.280000	25.948184
5.290000	25.948184
5.300000	25.948184
5.310000	25.948184
5.320000	25.948184
5.330000	25.948184
5.340000	25.948184
5.350000	25.948184
5.360000	25.948184
5.370000	25.948184
5.380000	25.948184
5.390000	25.948184
5.400000	25.948184
5.410000	25.948184
5.420000	25.948184
5.430000	25.948184
5.440000	25.948184
5.450000	25.948184
5.460000	25.948184
5.470000	25.948184
5.480000	25.948184
5.490000	25.948184
5.500000	26.000903
5.510000	26.000903
5.520000	26.000903
5.530000	26.000903
5.540000	26.000903
5.550000	26.000903
5.560000	26.000903
5.570000	26.000903
5.580000	26.000903
5.590000	26.000903
5.600000	26.000903
5.610000	26.000903
5.620000	26.000903
5.630000	26.000903
5.640000	26.000903
5.650000	26.000903
5.660000	26.000903
5.670000	26.000903
5.680000	26.000903
5.690000	26.000903
5.700000	26.000903
5.710000	26.000903
5.720000	26.000903
5.730000	26.000903
5.740000	26.000903
5.750000	26.000903
5.760000	26.000903
5.770000	26.000903
5.780000	26.000903
5.790000	26.000903
5.800000	26.000903
5.810000	26.000903
5.820000	26.000903
5.830000	26.000903
5.840000	26.000903
5.850000	26.000903
5.860000	26.000903
5.870000	26.000903
5.880000	26.000903
5.890000	26.000903
5.900000	26.000903
5.910000	26.000903
5.920000	26.000903
5.930000	26.000903
5.940000	26.000903
5.950000	26.000903
5.960000	26.000903
5.970000	26.000903
5.980000	26.000903
5.990000	26.000903
6.000000	26.031262
6.010000	26.031262
6.020000	26.031262
6.030000	26.031262
6.040000	26.031262
6.050000	26.031262
6.060000	26.031262
6.070000	26.031262
6.080000	26.031262
6.090000	26.031262
6.100000	26.031262
6.110000	26.031262
6.120000	26.031262
6.130000	26.031262
6.140000	26.031262
6.150000	26.031262
6.160000	26.031262
6.170000	26.031262
6.180000	26.031262
6.190000	26.031262
6.200000	26.031262
6.210000	26.031262
6.220000	26.031262
6.230000	26.031262
6.240000	26.031262
6.250000	26.031262
6.260000	26.031262
6.270000	26.031262
6.280000	26.031262
6.290000	26.031262
6.300000	26.031262
6.310000	26.031262
6.320000	26.031262
6.330000	26.031262
6.340000	26.031262
6.350000	26.031262
6.360000	26.031262
6.370000	26.031262
6.380000	26.031262
6.390000	26.031262
6.400000	26.031262
6.410000	26.031262
6.420000	26.031262
6.430000	26.031262
6.440000	26.031262
6.450000	26.031262
6.460000	26.031262
6.470000	26.031262
6.480000	26.031262
6.490000	26.031262
6.500000	26.046043
6.510000	26.046043
6.520000	26.046043
6.530000	26.046043
6.540000	26.046043
6.550000	26.046043
6.560000	26.046043
6.570000	26.046043
6.580000	26.046043
6.590000	26.046043
6.600000	26.046043
6.610000	26.046043
6.620000	26.046043
6.630000	26.046043
6.640000	26.046043
6.650000	26.046043
6.660000	26.046043
6.670000	26.046043
6.680000	26.046043
6.690000	26.046043
6.700000	26.046043
6.710000	26.046043
6.720000	26.046043
6.730000	26.046043
6.740000	26.046043
6.750000	26.046043
6.760000	26.046043
6.770000	26.046043
6.780000	26.046043
6.790000	26.046043
6.800000	26.046043
6.810000	26.046043
6.820000	26.046043
6.830000	26.046043
6.840000	26.046043
6.850000	26.046043
6.860000	26.046043
6.870000	26.046043
6.880000	26.046043
6.890000	26.046043
6.900000	26.046043
6.910000	26.046043
6.920000	26.046043
6.930000	26.046043
6.940000	26.046043
6.950000	26.046043
6.960000	26.046043
6.970000	26.046043
6.980000	26.046043
6.990000	26.046043
7.000000	26.049066
7.010000	26.049066
7.020000	26.049066
7.030000	26.049066
7.040000	26.049066
7.050000	26.049066
7.060000	26.049066
7.070000	26.049066
7.080000	26.049066
7.090000	26.049066
7.100000	26.049066
7.110000	26.049066
7.120000	26.049066
7.130000	26.049066
7.140000	26.049066
7.150000	26.049066
7.160000	26.049066
7.170000	26.049066
7.180000	26.049066
7.190000	26.049066
7.200000	26.049066
7.210000	26.049066
7.220000	26.049066
7.230000	26.049066
7.240000	26.049066
7.250000	26.049066
7.260000	26.049066
7.270000	26.049066
7.280000	26.049066
7.290000	26.049066
7.300000	26.049066
7.310000	26.049066
7.320000	26.049066
7.330000	26.049066
7.340000	26.049066
7.350000	26.049066
7.360000	26.049066
7.370000	26.049066
7.380000	26.049066
7.390000	26.049066
7.400000	26.049066
7.410000	26.049066
7.420000	26.049066
7.430000	26.049066
7.440000	26.049066
7.450000	26.049066
7.460000	26.049066
7.470000	26.049066
7.480000	26.049066
7.490000	26.049066
7.500000	26.043340
7.510000	26.043340
7.520000	26.043340
7.530000	26.043340
7.540000	26.043340
7.550000	26.043340
7.560000	26.043340
7.570000	26.043340
7.580000	26.043340
7.590000	26.043340
7.600000	26.043340
7.610000	26.043340
7.620000	26.043340
7.630000	26.043340
7.640000	26.043340
7.650000	26.043340
7.660000	26.043340
7.670000	26.043340
7.680000	26.043340
7.690000	26.043340
7.700000	26.043340
7.710000	26.043340
7.720000	26.043340
7.730000	26.043340
7.740000	26.043340
7.750000	26.043340
7.760000	26.043340
7.770000	26.043340
7.780000	26.043340
7.790000	26.043340
7.800000	26.043340
7.810000	26.043340
7.820000	26.043340
7.830000	26.043340
7.840000	26.043340
7.850000	26.043340
7.860000	26.043340
7.870000	26.043340
7.880000	26.043340
7.890000	26.043340
7.900000	26.043340
7.910000	26.043340
7.920000	26.043340
7.930000	26.043340
7.940000	26.043340
7.950000	26.043340
7.960000	26.043340
7.970000	26.043340
7.980000	26.043340
7.990000	26.043340
8.000000	26.030173
8.010000	26.030173
8.020000	26.030173
8.030000	26.030173
8.040000	26.030173
8.050000	26.030173
8.060000	26.030173
8.070000	26.030173
8.080000	26.030173
8.090000	26.030173
8.100000	26.030173
8.110000	26.030173
8.120000	26.030173
8.130000	26.030173
8.140000	26.030173
8.150000	26.030173
8.160000	26.030173
8.170000	26.030173
8.180000	26.030173
8.190000	26.030173
8.200000	26.030173
8.210000	26.030173
8.220000	26.030173
8.230000	26.030173
8.240000	26.030173
8.250000	26.030173
8.260000	26.030173
8.270000	26.030173
8.280000	26.030173
8.290000	26.030173
8.300000	26.030173
8.310000	26.030173
8.320000	26.030173
8.330000	26.030173
8.340000	26.030173
8.350000	26.030173
8.360000	26.030173
8.370000	26.030173
8.380000	26.030173
8.390000	26.030173
8.400000	26.030173
8.410000	26.030173
8.420000	26.030173
8.430000	26.030173
8.440000	26.030173
8.450000	26.030173
8.460000	26.030173
8.470000	26.030173
8.480000	26.030173
8.490000	26.030173
8.500000	26.012084
8.510000	26.012084
8.520000	26.012084
8.530000	26.012084
8.540000	26.012084
8.550000	26.012084
8.560000	26.012084
8.570000	26.012084
8.580000	26.012084
8.590000	26.012084
8.600000	26.012084
8.610000	26.012084
8.620000	26.012084
8.630000	26.012084
8.640000	26.012084
8.650000	26.012084
8.660000	26.012084
8.670000	26.012084
8.680000	26.012084
8.690000	26.012084
8.700000	26.012084
8.710000	26.012084
8.720000	26.012084
8.730000	26.012084
8.740000	26.012084
8.750000	26.012084
8.760000	26.012084
8.770000	26.012084
8.780000	26.012084
8.790000	26.012084
8.800000	26.012084
8.810000	26.012084
8.820000	26.012084
8.830000	26.012084
8.840000	26.012084
8.850000	26.012084
8.860000	26.012084
8.870000	26.012084
8.880000	26.012084
8.890000	26.012084
8.900000	26.012084
8.910000	26.012084
8.920000	26.012084
8.930000	26.012084
8.940000	26.012084
8.950000	26.012084
8.960000	26.012084
8.970000	26.012084
8.980000	26.012084
8.990000	26.012084
9.000000	25.989618
9.010000	25.989618
9.020000	25.989618
9.030000	25.989618
9.040000	25.989618
9.050000	25.989618
9.060000	25.989618
9.070000	25.989618
9.080000	25.989618
9.090000	25.989618
9.100000	25.989618
9.110000	25.989618
9.120000	25.989618
9.130000	25.989618
9.140000	25.989618
9.150000	25.989618
9.160000	25.989618
9.170000	25.989618
9.180000	25.989618
9.190000	25.989618
9.200000	25.989618
9.210000	25.989618
9.220000	25.989618
9.230000	25.989618
9.240000	25.989618
9.250000	25.989618
9.260000	25.989618
9.270000	25.989618
9.280000	25.989618
9.290000	25.989618
9.300000	25.989618
9.310000	25.989618
9.320000	25.989618
9.330000	25.989618
9.340000	25.989618
9.350000	25.989618
9.360000	25.989618
9.370000	25.989618
9.380000	25.989618
9.390000	25.989618
9.400000	25.989618
9.410000	25.989618
9.420000	25.989618
9.430000	25.989618
9.440000	25.989618
9.450000	25.989618
9.460000	25.989618
9.470000	25.989618
9.480000	25.989618
9.490000	25.989618
9.500000	25.963201
9.510000	25.963201
9.520000	25.963201
9.530000	25.963201
9.540000	25.963201
9.550000	25.963201
9.560000	25.963201
9.570000	25.963201
9.580000	25.963201
9.590000	25.963201
9.600000	25.963201
9.610000	25.963201
9.620000	25.963201
9.630000	25.963201
9.640000	25.963201
9.650000	25.963201
9.660000	25.963201
9.670000	25.963201
9.680000	25.963201
9.690000	25.963201
9.700000	25.963201
9.710000	25.963201
9.720000	25.963201
9.730000	25.963201
9.740000	25.963201
9.750000	25.963201
9.760000	25.963201
