LabVIEW Measurement	
Writer_Version	2
Reader_Version	2
Separator	Tab
Decimal_Separator	.
Multi_Headings	No
X_Columns	One
Time_Pref	Absolute
Operator	biomech-dyno
Date	2023/04/27
Time	17:41:55.9338632999999876419
***End_of_Header***	
	
Channels	1	
Samples	10	
Date	2023/04/27	
Time	19:43:16.1223279999998900559	
X_Dimension	Time	
X0	0.0000000000000000E+0	
Delta_X	0.010000	
***End_of_Header***		
X_Value	Untitled	Comment
0.000000	25.177704
0.010000	25.177704
0.020000	25.177704
0.030000	25.177704
0.040000	25.177704
0.050000	25.177704
0.060000	25.177704
0.070000	25.177704
0.080000	25.177704
0.090000	25.177704
0.100000	25.177704
0.110000	25.177704
0.120000	25.177704
0.130000	25.177704
0.140000	25.177704
0.150000	25.177704
0.160000	25.177704
0.170000	25.177704
0.180000	25.177704
0.190000	25.177704
0.200000	25.177704
0.210000	25.177704
0.220000	25.177704
0.230000	25.177704
0.240000	25.177704
0.250000	25.177704
0.260000	25.177704
0.270000	25.177704
0.280000	25.177704
0.290000	25.177704
0.300000	25.177704
0.310000	25.177704
0.320000	25.177704
0.330000	25.177704
0.340000	25.177704
0.350000	25.177704
0.360000	25.177704
0.370000	25.177704
0.380000	25.177704
0.390000	25.177704
0.400000	25.177704
0.410000	25.177704
0.420000	25.177704
0.430000	25.177704
0.440000	25.177704
0.450000	25.177704
0.460000	25.177704
0.470000	25.177704
0.480000	25.177704
0.490000	25.177704
0.500000	25.254205
0.510000	25.254205
0.520000	25.254205
0.530000	25.254205
0.540000	25.254205
0.550000	25.254205
0.560000	25.254205
0.570000	25.254205
0.580000	25.254205
0.590000	25.254205
0.600000	25.254205
0.610000	25.254205
0.620000	25.254205
0.630000	25.254205
0.640000	25.254205
0.650000	25.254205
0.660000	25.254205
0.670000	25.254205
0.680000	25.254205
0.690000	25.254205
0.700000	25.254205
0.710000	25.254205
0.720000	25.254205
0.730000	25.254205
0.740000	25.254205
0.750000	25.254205
0.760000	25.254205
0.770000	25.254205
0.780000	25.254205
0.790000	25.254205
0.800000	25.254205
0.810000	25.254205
0.820000	25.254205
0.830000	25.254205
0.840000	25.254205
0.850000	25.254205
0.860000	25.254205
0.870000	25.254205
0.880000	25.254205
0.890000	25.254205
0.900000	25.254205
0.910000	25.254205
0.920000	25.254205
0.930000	25.254205
0.940000	25.254205
0.950000	25.254205
0.960000	25.254205
0.970000	25.254205
0.980000	25.254205
0.990000	25.254205
1.000000	26.008214
1.010000	26.008214
1.020000	26.008214
1.030000	26.008214
1.040000	26.008214
1.050000	26.008214
1.060000	26.008214
1.070000	26.008214
1.080000	26.008214
1.090000	26.008214
1.100000	26.008214
1.110000	26.008214
1.120000	26.008214
1.130000	26.008214
1.140000	26.008214
1.150000	26.008214
1.160000	26.008214
1.170000	26.008214
1.180000	26.008214
1.190000	26.008214
1.200000	26.008214
1.210000	26.008214
1.220000	26.008214
1.230000	26.008214
1.240000	26.008214
1.250000	26.008214
1.260000	26.008214
1.270000	26.008214
1.280000	26.008214
1.290000	26.008214
1.300000	26.008214
1.310000	26.008214
1.320000	26.008214
1.330000	26.008214
1.340000	26.008214
1.350000	26.008214
1.360000	26.008214
1.370000	26.008214
1.380000	26.008214
1.390000	26.008214
1.400000	26.008214
1.410000	26.008214
1.420000	26.008214
1.430000	26.008214
1.440000	26.008214
1.450000	26.008214
1.460000	26.008214
1.470000	26.008214
1.480000	26.008214
1.490000	26.008214
1.500000	27.732398
1.510000	27.732398
1.520000	27.732398
1.530000	27.732398
1.540000	27.732398
1.550000	27.732398
1.560000	27.732398
1.570000	27.732398
1.580000	27.732398
1.590000	27.732398
1.600000	27.732398
1.610000	27.732398
1.620000	27.732398
1.630000	27.732398
1.640000	27.732398
1.650000	27.732398
1.660000	27.732398
1.670000	27.732398
1.680000	27.732398
1.690000	27.732398
1.700000	27.732398
1.710000	27.732398
1.720000	27.732398
1.730000	27.732398
1.740000	27.732398
1.750000	27.732398
1.760000	27.732398
1.770000	27.732398
1.780000	27.732398
1.790000	27.732398
1.800000	27.732398
1.810000	27.732398
1.820000	27.732398
1.830000	27.732398
1.840000	27.732398
1.850000	27.732398
1.860000	27.732398
1.870000	27.732398
1.880000	27.732398
1.890000	27.732398
1.900000	27.732398
1.910000	27.732398
1.920000	27.732398
1.930000	27.732398
1.940000	27.732398
1.950000	27.732398
1.960000	27.732398
1.970000	27.732398
1.980000	27.732398
1.990000	27.732398
2.000000	30.203451
2.010000	30.203451
2.020000	30.203451
2.030000	30.203451
2.040000	30.203451
2.050000	30.203451
2.060000	30.203451
2.070000	30.203451
2.080000	30.203451
2.090000	30.203451
2.100000	30.203451
2.110000	30.203451
2.120000	30.203451
2.130000	30.203451
2.140000	30.203451
2.150000	30.203451
2.160000	30.203451
2.170000	30.203451
2.180000	30.203451
2.190000	30.203451
2.200000	30.203451
2.210000	30.203451
2.220000	30.203451
2.230000	30.203451
2.240000	30.203451
2.250000	30.203451
2.260000	30.203451
2.270000	30.203451
2.280000	30.203451
2.290000	30.203451
2.300000	30.203451
2.310000	30.203451
2.320000	30.203451
2.330000	30.203451
2.340000	30.203451
2.350000	30.203451
2.360000	30.203451
2.370000	30.203451
2.380000	30.203451
2.390000	30.203451
2.400000	30.203451
2.410000	30.203451
2.420000	30.203451
2.430000	30.203451
2.440000	30.203451
2.450000	30.203451
2.460000	30.203451
2.470000	30.203451
2.480000	30.203451
2.490000	30.203451
2.500000	33.223219
2.510000	33.223219
2.520000	33.223219
2.530000	33.223219
2.540000	33.223219
2.550000	33.223219
2.560000	33.223219
2.570000	33.223219
2.580000	33.223219
2.590000	33.223219
2.600000	33.223219
2.610000	33.223219
2.620000	33.223219
2.630000	33.223219
2.640000	33.223219
2.650000	33.223219
2.660000	33.223219
2.670000	33.223219
2.680000	33.223219
2.690000	33.223219
2.700000	33.223219
2.710000	33.223219
2.720000	33.223219
2.730000	33.223219
2.740000	33.223219
2.750000	33.223219
2.760000	33.223219
2.770000	33.223219
2.780000	33.223219
2.790000	33.223219
2.800000	33.223219
2.810000	33.223219
2.820000	33.223219
2.830000	33.223219
2.840000	33.223219
2.850000	33.223219
2.860000	33.223219
2.870000	33.223219
2.880000	33.223219
2.890000	33.223219
2.900000	33.223219
2.910000	33.223219
2.920000	33.223219
2.930000	33.223219
2.940000	33.223219
2.950000	33.223219
2.960000	33.223219
2.970000	33.223219
2.980000	33.223219
2.990000	33.223219
3.000000	36.410828
3.010000	36.410828
3.020000	36.410828
3.030000	36.410828
3.040000	36.410828
3.050000	36.410828
3.060000	36.410828
3.070000	36.410828
3.080000	36.410828
3.090000	36.410828
3.100000	36.410828
3.110000	36.410828
3.120000	36.410828
3.130000	36.410828
3.140000	36.410828
3.150000	36.410828
3.160000	36.410828
3.170000	36.410828
3.180000	36.410828
3.190000	36.410828
3.200000	36.410828
3.210000	36.410828
3.220000	36.410828
3.230000	36.410828
3.240000	36.410828
3.250000	36.410828
3.260000	36.410828
3.270000	36.410828
3.280000	36.410828
3.290000	36.410828
3.300000	36.410828
3.310000	36.410828
3.320000	36.410828
3.330000	36.410828
3.340000	36.410828
3.350000	36.410828
3.360000	36.410828
3.370000	36.410828
3.380000	36.410828
3.390000	36.410828
3.400000	36.410828
3.410000	36.410828
3.420000	36.410828
3.430000	36.410828
3.440000	36.410828
3.450000	36.410828
3.460000	36.410828
3.470000	36.410828
3.480000	36.410828
3.490000	36.410828
3.500000	39.006691
3.510000	39.006691
3.520000	39.006691
3.530000	39.006691
3.540000	39.006691
3.550000	39.006691
3.560000	39.006691
3.570000	39.006691
3.580000	39.006691
3.590000	39.006691
3.600000	39.006691
3.610000	39.006691
3.620000	39.006691
3.630000	39.006691
3.640000	39.006691
3.650000	39.006691
3.660000	39.006691
3.670000	39.006691
3.680000	39.006691
3.690000	39.006691
3.700000	39.006691
3.710000	39.006691
3.720000	39.006691
3.730000	39.006691
3.740000	39.006691
3.750000	39.006691
3.760000	39.006691
3.770000	39.006691
3.780000	39.006691
3.790000	39.006691
3.800000	39.006691
3.810000	39.006691
3.820000	39.006691
3.830000	39.006691
3.840000	39.006691
3.850000	39.006691
3.860000	39.006691
3.870000	39.006691
3.880000	39.006691
3.890000	39.006691
3.900000	39.006691
3.910000	39.006691
3.920000	39.006691
3.930000	39.006691
3.940000	39.006691
3.950000	39.006691
3.960000	39.006691
3.970000	39.006691
3.980000	39.006691
3.990000	39.006691
4.000000	40.981578
4.010000	40.981578
4.020000	40.981578
4.030000	40.981578
4.040000	40.981578
4.050000	40.981578
4.060000	40.981578
4.070000	40.981578
4.080000	40.981578
4.090000	40.981578
4.100000	40.981578
4.110000	40.981578
4.120000	40.981578
4.130000	40.981578
4.140000	40.981578
4.150000	40.981578
4.160000	40.981578
4.170000	40.981578
4.180000	40.981578
4.190000	40.981578
4.200000	40.981578
4.210000	40.981578
4.220000	40.981578
4.230000	40.981578
4.240000	40.981578
4.250000	40.981578
4.260000	40.981578
4.270000	40.981578
4.280000	40.981578
4.290000	40.981578
4.300000	40.981578
4.310000	40.981578
4.320000	40.981578
4.330000	40.981578
4.340000	40.981578
4.350000	40.981578
4.360000	40.981578
4.370000	40.981578
4.380000	40.981578
4.390000	40.981578
4.400000	40.981578
4.410000	40.981578
4.420000	40.981578
4.430000	40.981578
4.440000	40.981578
4.450000	40.981578
4.460000	40.981578
4.470000	40.981578
4.480000	40.981578
4.490000	40.981578
4.500000	42.381756
4.510000	42.381756
4.520000	42.381756
4.530000	42.381756
4.540000	42.381756
4.550000	42.381756
4.560000	42.381756
4.570000	42.381756
4.580000	42.381756
4.590000	42.381756
4.600000	42.381756
4.610000	42.381756
4.620000	42.381756
4.630000	42.381756
4.640000	42.381756
4.650000	42.381756
4.660000	42.381756
4.670000	42.381756
4.680000	42.381756
4.690000	42.381756
4.700000	42.381756
4.710000	42.381756
4.720000	42.381756
4.730000	42.381756
4.740000	42.381756
4.750000	42.381756
4.760000	42.381756
4.770000	42.381756
4.780000	42.381756
4.790000	42.381756
4.800000	42.381756
4.810000	42.381756
4.820000	42.381756
4.830000	42.381756
4.840000	42.381756
4.850000	42.381756
4.860000	42.381756
4.870000	42.381756
4.880000	42.381756
4.890000	42.381756
4.900000	42.381756
4.910000	42.381756
4.920000	42.381756
4.930000	42.381756
4.940000	42.381756
4.950000	42.381756
4.960000	42.381756
4.970000	42.381756
4.980000	42.381756
4.990000	42.381756
5.000000	43.332251
5.010000	43.332251
5.020000	43.332251
5.030000	43.332251
5.040000	43.332251
5.050000	43.332251
5.060000	43.332251
5.070000	43.332251
5.080000	43.332251
5.090000	43.332251
5.100000	43.332251
5.110000	43.332251
5.120000	43.332251
5.130000	43.332251
5.140000	43.332251
5.150000	43.332251
5.160000	43.332251
5.170000	43.332251
5.180000	43.332251
5.190000	43.332251
5.200000	43.332251
5.210000	43.332251
5.220000	43.332251
5.230000	43.332251
5.240000	43.332251
5.250000	43.332251
5.260000	43.332251
5.270000	43.332251
5.280000	43.332251
5.290000	43.332251
5.300000	43.332251
5.310000	43.332251
5.320000	43.332251
5.330000	43.332251
5.340000	43.332251
5.350000	43.332251
5.360000	43.332251
5.370000	43.332251
5.380000	43.332251
5.390000	43.332251
5.400000	43.332251
5.410000	43.332251
5.420000	43.332251
5.430000	43.332251
5.440000	43.332251
5.450000	43.332251
5.460000	43.332251
5.470000	43.332251
5.480000	43.332251
5.490000	43.332251
5.500000	43.964383
5.510000	43.964383
5.520000	43.964383
5.530000	43.964383
5.540000	43.964383
5.550000	43.964383
5.560000	43.964383
5.570000	43.964383
5.580000	43.964383
5.590000	43.964383
5.600000	43.964383
5.610000	43.964383
5.620000	43.964383
5.630000	43.964383
5.640000	43.964383
5.650000	43.964383
5.660000	43.964383
5.670000	43.964383
5.680000	43.964383
5.690000	43.964383
5.700000	43.964383
5.710000	43.964383
5.720000	43.964383
5.730000	43.964383
5.740000	43.964383
5.750000	43.964383
5.760000	43.964383
5.770000	43.964383
5.780000	43.964383
5.790000	43.964383
5.800000	43.964383
5.810000	43.964383
5.820000	43.964383
5.830000	43.964383
5.840000	43.964383
5.850000	43.964383
5.860000	43.964383
5.870000	43.964383
5.880000	43.964383
5.890000	43.964383
5.900000	43.964383
5.910000	43.964383
5.920000	43.964383
5.930000	43.964383
5.940000	43.964383
5.950000	43.964383
5.960000	43.964383
5.970000	43.964383
5.980000	43.964383
5.990000	43.964383
6.000000	44.357480
6.010000	44.357480
6.020000	44.357480
6.030000	44.357480
6.040000	44.357480
6.050000	44.357480
6.060000	44.357480
6.070000	44.357480
6.080000	44.357480
6.090000	44.357480
6.100000	44.357480
6.110000	44.357480
6.120000	44.357480
6.130000	44.357480
6.140000	44.357480
6.150000	44.357480
6.160000	44.357480
6.170000	44.357480
6.180000	44.357480
6.190000	44.357480
6.200000	44.357480
6.210000	44.357480
6.220000	44.357480
6.230000	44.357480
6.240000	44.357480
6.250000	44.357480
6.260000	44.357480
6.270000	44.357480
6.280000	44.357480
6.290000	44.357480
6.300000	44.357480
6.310000	44.357480
6.320000	44.357480
6.330000	44.357480
6.340000	44.357480
6.350000	44.357480
6.360000	44.357480
6.370000	44.357480
6.380000	44.357480
6.390000	44.357480
6.400000	44.357480
6.410000	44.357480
6.420000	44.357480
6.430000	44.357480
6.440000	44.357480
6.450000	44.357480
6.460000	44.357480
6.470000	44.357480
6.480000	44.357480
6.490000	44.357480
6.500000	44.562227
6.510000	44.562227
6.520000	44.562227
6.530000	44.562227
6.540000	44.562227
6.550000	44.562227
6.560000	44.562227
6.570000	44.562227
6.580000	44.562227
6.590000	44.562227
6.600000	44.562227
6.610000	44.562227
6.620000	44.562227
6.630000	44.562227
6.640000	44.562227
6.650000	44.562227
6.660000	44.562227
6.670000	44.562227
6.680000	44.562227
6.690000	44.562227
6.700000	44.562227
6.710000	44.562227
6.720000	44.562227
6.730000	44.562227
6.740000	44.562227
6.750000	44.562227
6.760000	44.562227
6.770000	44.562227
6.780000	44.562227
6.790000	44.562227
6.800000	44.562227
6.810000	44.562227
6.820000	44.562227
6.830000	44.562227
6.840000	44.562227
6.850000	44.562227
6.860000	44.562227
6.870000	44.562227
6.880000	44.562227
6.890000	44.562227
6.900000	44.562227
6.910000	44.562227
6.920000	44.562227
6.930000	44.562227
6.940000	44.562227
6.950000	44.562227
6.960000	44.562227
6.970000	44.562227
6.980000	44.562227
6.990000	44.562227
7.000000	44.615933
7.010000	44.615933
7.020000	44.615933
7.030000	44.615933
7.040000	44.615933
7.050000	44.615933
7.060000	44.615933
7.070000	44.615933
7.080000	44.615933
7.090000	44.615933
7.100000	44.615933
7.110000	44.615933
7.120000	44.615933
7.130000	44.615933
7.140000	44.615933
7.150000	44.615933
7.160000	44.615933
7.170000	44.615933
7.180000	44.615933
7.190000	44.615933
7.200000	44.615933
7.210000	44.615933
7.220000	44.615933
7.230000	44.615933
7.240000	44.615933
7.250000	44.615933
7.260000	44.615933
7.270000	44.615933
7.280000	44.615933
7.290000	44.615933
7.300000	44.615933
7.310000	44.615933
7.320000	44.615933
7.330000	44.615933
7.340000	44.615933
7.350000	44.615933
7.360000	44.615933
7.370000	44.615933
7.380000	44.615933
7.390000	44.615933
7.400000	44.615933
7.410000	44.615933
7.420000	44.615933
7.430000	44.615933
7.440000	44.615933
7.450000	44.615933
7.460000	44.615933
7.470000	44.615933
7.480000	44.615933
7.490000	44.615933
7.500000	44.560704
7.510000	44.560704
7.520000	44.560704
7.530000	44.560704
7.540000	44.560704
7.550000	44.560704
7.560000	44.560704
7.570000	44.560704
7.580000	44.560704
7.590000	44.560704
7.600000	44.560704
7.610000	44.560704
7.620000	44.560704
7.630000	44.560704
7.640000	44.560704
7.650000	44.560704
7.660000	44.560704
7.670000	44.560704
7.680000	44.560704
7.690000	44.560704
7.700000	44.560704
7.710000	44.560704
7.720000	44.560704
7.730000	44.560704
7.740000	44.560704
7.750000	44.560704
7.760000	44.560704
7.770000	44.560704
7.780000	44.560704
7.790000	44.560704
7.800000	44.560704
7.810000	44.560704
7.820000	44.560704
7.830000	44.560704
7.840000	44.560704
7.850000	44.560704
7.860000	44.560704
7.870000	44.560704
7.880000	44.560704
7.890000	44.560704
7.900000	44.560704
7.910000	44.560704
7.920000	44.560704
7.930000	44.560704
7.940000	44.560704
7.950000	44.560704
7.960000	44.560704
7.970000	44.560704
7.980000	44.560704
7.990000	44.560704
8.000000	44.419456
8.010000	44.419456
8.020000	44.419456
8.030000	44.419456
8.040000	44.419456
8.050000	44.419456
8.060000	44.419456
8.070000	44.419456
8.080000	44.419456
8.090000	44.419456
8.100000	44.419456
8.110000	44.419456
8.120000	44.419456
8.130000	44.419456
8.140000	44.419456
8.150000	44.419456
8.160000	44.419456
8.170000	44.419456
8.180000	44.419456
8.190000	44.419456
8.200000	44.419456
8.210000	44.419456
8.220000	44.419456
8.230000	44.419456
8.240000	44.419456
8.250000	44.419456
8.260000	44.419456
8.270000	44.419456
8.280000	44.419456
8.290000	44.419456
8.300000	44.419456
8.310000	44.419456
8.320000	44.419456
8.330000	44.419456
8.340000	44.419456
8.350000	44.419456
8.360000	44.419456
8.370000	44.419456
8.380000	44.419456
8.390000	44.419456
8.400000	44.419456
8.410000	44.419456
8.420000	44.419456
8.430000	44.419456
8.440000	44.419456
8.450000	44.419456
8.460000	44.419456
8.470000	44.419456
8.480000	44.419456
8.490000	44.419456
8.500000	44.220918
8.510000	44.220918
8.520000	44.220918
8.530000	44.220918
8.540000	44.220918
8.550000	44.220918
8.560000	44.220918
8.570000	44.220918
8.580000	44.220918
8.590000	44.220918
8.600000	44.220918
8.610000	44.220918
8.620000	44.220918
8.630000	44.220918
8.640000	44.220918
8.650000	44.220918
8.660000	44.220918
8.670000	44.220918
8.680000	44.220918
8.690000	44.220918
8.700000	44.220918
8.710000	44.220918
8.720000	44.220918
8.730000	44.220918
8.740000	44.220918
8.750000	44.220918
8.760000	44.220918
8.770000	44.220918
8.780000	44.220918
8.790000	44.220918
8.800000	44.220918
8.810000	44.220918
8.820000	44.220918
8.830000	44.220918
8.840000	44.220918
8.850000	44.220918
8.860000	44.220918
8.870000	44.220918
8.880000	44.220918
8.890000	44.220918
8.900000	44.220918
8.910000	44.220918
8.920000	44.220918
8.930000	44.220918
8.940000	44.220918
8.950000	44.220918
8.960000	44.220918
8.970000	44.220918
8.980000	44.220918
8.990000	44.220918
9.000000	43.973866
9.010000	43.973866
9.020000	43.973866
9.030000	43.973866
9.040000	43.973866
9.050000	43.973866
9.060000	43.973866
9.070000	43.973866
9.080000	43.973866
9.090000	43.973866
9.100000	43.973866
9.110000	43.973866
9.120000	43.973866
9.130000	43.973866
9.140000	43.973866
9.150000	43.973866
9.160000	43.973866
9.170000	43.973866
9.180000	43.973866
9.190000	43.973866
9.200000	43.973866
9.210000	43.973866
9.220000	43.973866
9.230000	43.973866
9.240000	43.973866
9.250000	43.973866
9.260000	43.973866
9.270000	43.973866
9.280000	43.973866
9.290000	43.973866
9.300000	43.973866
9.310000	43.973866
9.320000	43.973866
9.330000	43.973866
9.340000	43.973866
9.350000	43.973866
9.360000	43.973866
9.370000	43.973866
9.380000	43.973866
9.390000	43.973866
9.400000	43.973866
9.410000	43.973866
9.420000	43.973866
9.430000	43.973866
9.440000	43.973866
9.450000	43.973866
9.460000	43.973866
9.470000	43.973866
9.480000	43.973866
9.490000	43.973866
9.500000	43.706645
9.510000	43.706645
9.520000	43.706645
9.530000	43.706645
9.540000	43.706645
9.550000	43.706645
9.560000	43.706645
9.570000	43.706645
9.580000	43.706645
9.590000	43.706645
9.600000	43.706645
9.610000	43.706645
9.620000	43.706645
9.630000	43.706645
9.640000	43.706645
9.650000	43.706645
9.660000	43.706645
9.670000	43.706645
9.680000	43.706645
9.690000	43.706645
9.700000	43.706645
9.710000	43.706645
9.720000	43.706645
9.730000	43.706645
9.740000	43.706645
9.750000	43.706645
9.760000	43.706645
