LabVIEW Measurement	
Writer_Version	2
Reader_Version	2
Separator	Tab
Decimal_Separator	.
Multi_Headings	No
X_Columns	One
Time_Pref	Absolute
Operator	biomech-dyno
Date	2023/04/27
Time	17:41:55.9338632999999876419
***End_of_Header***	
	
Channels	1	
Samples	10	
Date	2023/04/27	
Time	19:45:23.4795792999997050733	
X_Dimension	Time	
X0	0.0000000000000000E+0	
Delta_X	0.010000	
***End_of_Header***		
X_Value	Untitled	Comment
0.000000	24.824537
0.010000	24.824537
0.020000	24.824537
0.030000	24.824537
0.040000	24.824537
0.050000	24.824537
0.060000	24.824537
0.070000	24.824537
0.080000	24.824537
0.090000	24.824537
0.100000	24.824537
0.110000	24.824537
0.120000	24.824537
0.130000	24.824537
0.140000	24.824537
0.150000	24.824537
0.160000	24.824537
0.170000	24.824537
0.180000	24.824537
0.190000	24.824537
0.200000	24.824537
0.210000	24.824537
0.220000	24.824537
0.230000	24.824537
0.240000	24.824537
0.250000	24.824537
0.260000	24.824537
0.270000	24.824537
0.280000	24.824537
0.290000	24.824537
0.300000	24.824537
0.310000	24.824537
0.320000	24.824537
0.330000	24.824537
0.340000	24.824537
0.350000	24.824537
0.360000	24.824537
0.370000	24.824537
0.380000	24.824537
0.390000	24.824537
0.400000	24.824537
0.410000	24.824537
0.420000	24.824537
0.430000	24.824537
0.440000	24.824537
0.450000	24.824537
0.460000	24.824537
0.470000	24.824537
0.480000	24.824537
0.490000	24.824537
0.500000	24.835393
0.510000	24.835393
0.520000	24.835393
0.530000	24.835393
0.540000	24.835393
0.550000	24.835393
0.560000	24.835393
0.570000	24.835393
0.580000	24.835393
0.590000	24.835393
0.600000	24.835393
0.610000	24.835393
0.620000	24.835393
0.630000	24.835393
0.640000	24.835393
0.650000	24.835393
0.660000	24.835393
0.670000	24.835393
0.680000	24.835393
0.690000	24.835393
0.700000	24.835393
0.710000	24.835393
0.720000	24.835393
0.730000	24.835393
0.740000	24.835393
0.750000	24.835393
0.760000	24.835393
0.770000	24.835393
0.780000	24.835393
0.790000	24.835393
0.800000	24.835393
0.810000	24.835393
0.820000	24.835393
0.830000	24.835393
0.840000	24.835393
0.850000	24.835393
0.860000	24.835393
0.870000	24.835393
0.880000	24.835393
0.890000	24.835393
0.900000	24.835393
0.910000	24.835393
0.920000	24.835393
0.930000	24.835393
0.940000	24.835393
0.950000	24.835393
0.960000	24.835393
0.970000	24.835393
0.980000	24.835393
0.990000	24.835393
1.000000	24.852321
1.010000	24.852321
1.020000	24.852321
1.030000	24.852321
1.040000	24.852321
1.050000	24.852321
1.060000	24.852321
1.070000	24.852321
1.080000	24.852321
1.090000	24.852321
1.100000	24.852321
1.110000	24.852321
1.120000	24.852321
1.130000	24.852321
1.140000	24.852321
1.150000	24.852321
1.160000	24.852321
1.170000	24.852321
1.180000	24.852321
1.190000	24.852321
1.200000	24.852321
1.210000	24.852321
1.220000	24.852321
1.230000	24.852321
1.240000	24.852321
1.250000	24.852321
1.260000	24.852321
1.270000	24.852321
1.280000	24.852321
1.290000	24.852321
1.300000	24.852321
1.310000	24.852321
1.320000	24.852321
1.330000	24.852321
1.340000	24.852321
1.350000	24.852321
1.360000	24.852321
1.370000	24.852321
1.380000	24.852321
1.390000	24.852321
1.400000	24.852321
1.410000	24.852321
1.420000	24.852321
1.430000	24.852321
1.440000	24.852321
1.450000	24.852321
1.460000	24.852321
1.470000	24.852321
1.480000	24.852321
1.490000	24.852321
1.500000	24.880202
1.510000	24.880202
1.520000	24.880202
1.530000	24.880202
1.540000	24.880202
1.550000	24.880202
1.560000	24.880202
1.570000	24.880202
1.580000	24.880202
1.590000	24.880202
1.600000	24.880202
1.610000	24.880202
1.620000	24.880202
1.630000	24.880202
1.640000	24.880202
1.650000	24.880202
1.660000	24.880202
1.670000	24.880202
1.680000	24.880202
1.690000	24.880202
1.700000	24.880202
1.710000	24.880202
1.720000	24.880202
1.730000	24.880202
1.740000	24.880202
1.750000	24.880202
1.760000	24.880202
1.770000	24.880202
1.780000	24.880202
1.790000	24.880202
1.800000	24.880202
1.810000	24.880202
1.820000	24.880202
1.830000	24.880202
1.840000	24.880202
1.850000	24.880202
1.860000	24.880202
1.870000	24.880202
1.880000	24.880202
1.890000	24.880202
1.900000	24.880202
1.910000	24.880202
1.920000	24.880202
1.930000	24.880202
1.940000	24.880202
1.950000	24.880202
1.960000	24.880202
1.970000	24.880202
1.980000	24.880202
1.990000	24.880202
2.000000	24.916717
2.010000	24.916717
2.020000	24.916717
2.030000	24.916717
2.040000	24.916717
2.050000	24.916717
2.060000	24.916717
2.070000	24.916717
2.080000	24.916717
2.090000	24.916717
2.100000	24.916717
2.110000	24.916717
2.120000	24.916717
2.130000	24.916717
2.140000	24.916717
2.150000	24.916717
2.160000	24.916717
2.170000	24.916717
2.180000	24.916717
2.190000	24.916717
2.200000	24.916717
2.210000	24.916717
2.220000	24.916717
2.230000	24.916717
2.240000	24.916717
2.250000	24.916717
2.260000	24.916717
2.270000	24.916717
2.280000	24.916717
2.290000	24.916717
2.300000	24.916717
2.310000	24.916717
2.320000	24.916717
2.330000	24.916717
2.340000	24.916717
2.350000	24.916717
2.360000	24.916717
2.370000	24.916717
2.380000	24.916717
2.390000	24.916717
2.400000	24.916717
2.410000	24.916717
2.420000	24.916717
2.430000	24.916717
2.440000	24.916717
2.450000	24.916717
2.460000	24.916717
2.470000	24.916717
2.480000	24.916717
2.490000	24.916717
2.500000	24.958480
2.510000	24.958480
2.520000	24.958480
2.530000	24.958480
2.540000	24.958480
2.550000	24.958480
2.560000	24.958480
2.570000	24.958480
2.580000	24.958480
2.590000	24.958480
2.600000	24.958480
2.610000	24.958480
2.620000	24.958480
2.630000	24.958480
2.640000	24.958480
2.650000	24.958480
2.660000	24.958480
2.670000	24.958480
2.680000	24.958480
2.690000	24.958480
2.700000	24.958480
2.710000	24.958480
2.720000	24.958480
2.730000	24.958480
2.740000	24.958480
2.750000	24.958480
2.760000	24.958480
2.770000	24.958480
2.780000	24.958480
2.790000	24.958480
2.800000	24.958480
2.810000	24.958480
2.820000	24.958480
2.830000	24.958480
2.840000	24.958480
2.850000	24.958480
2.860000	24.958480
2.870000	24.958480
2.880000	24.958480
2.890000	24.958480
2.900000	24.958480
2.910000	24.958480
2.920000	24.958480
2.930000	24.958480
2.940000	24.958480
2.950000	24.958480
2.960000	24.958480
2.970000	24.958480
2.980000	24.958480
2.990000	24.958480
3.000000	25.001819
3.010000	25.001819
3.020000	25.001819
3.030000	25.001819
3.040000	25.001819
3.050000	25.001819
3.060000	25.001819
3.070000	25.001819
3.080000	25.001819
3.090000	25.001819
3.100000	25.001819
3.110000	25.001819
3.120000	25.001819
3.130000	25.001819
3.140000	25.001819
3.150000	25.001819
3.160000	25.001819
3.170000	25.001819
3.180000	25.001819
3.190000	25.001819
3.200000	25.001819
3.210000	25.001819
3.220000	25.001819
3.230000	25.001819
3.240000	25.001819
3.250000	25.001819
3.260000	25.001819
3.270000	25.001819
3.280000	25.001819
3.290000	25.001819
3.300000	25.001819
3.310000	25.001819
3.320000	25.001819
3.330000	25.001819
3.340000	25.001819
3.350000	25.001819
3.360000	25.001819
3.370000	25.001819
3.380000	25.001819
3.390000	25.001819
3.400000	25.001819
3.410000	25.001819
3.420000	25.001819
3.430000	25.001819
3.440000	25.001819
3.450000	25.001819
3.460000	25.001819
3.470000	25.001819
3.480000	25.001819
3.490000	25.001819
3.500000	25.039742
3.510000	25.039742
3.520000	25.039742
3.530000	25.039742
3.540000	25.039742
3.550000	25.039742
3.560000	25.039742
3.570000	25.039742
3.580000	25.039742
3.590000	25.039742
3.600000	25.039742
3.610000	25.039742
3.620000	25.039742
3.630000	25.039742
3.640000	25.039742
3.650000	25.039742
3.660000	25.039742
3.670000	25.039742
3.680000	25.039742
3.690000	25.039742
3.700000	25.039742
3.710000	25.039742
3.720000	25.039742
3.730000	25.039742
3.740000	25.039742
3.750000	25.039742
3.760000	25.039742
3.770000	25.039742
3.780000	25.039742
3.790000	25.039742
3.800000	25.039742
3.810000	25.039742
3.820000	25.039742
3.830000	25.039742
3.840000	25.039742
3.850000	25.039742
3.860000	25.039742
3.870000	25.039742
3.880000	25.039742
3.890000	25.039742
3.900000	25.039742
3.910000	25.039742
3.920000	25.039742
3.930000	25.039742
3.940000	25.039742
3.950000	25.039742
3.960000	25.039742
3.970000	25.039742
3.980000	25.039742
3.990000	25.039742
4.000000	25.068151
4.010000	25.068151
4.020000	25.068151
4.030000	25.068151
4.040000	25.068151
4.050000	25.068151
4.060000	25.068151
4.070000	25.068151
4.080000	25.068151
4.090000	25.068151
4.100000	25.068151
4.110000	25.068151
4.120000	25.068151
4.130000	25.068151
4.140000	25.068151
4.150000	25.068151
4.160000	25.068151
4.170000	25.068151
4.180000	25.068151
4.190000	25.068151
4.200000	25.068151
4.210000	25.068151
4.220000	25.068151
4.230000	25.068151
4.240000	25.068151
4.250000	25.068151
4.260000	25.068151
4.270000	25.068151
4.280000	25.068151
4.290000	25.068151
4.300000	25.068151
4.310000	25.068151
4.320000	25.068151
4.330000	25.068151
4.340000	25.068151
4.350000	25.068151
4.360000	25.068151
4.370000	25.068151
4.380000	25.068151
4.390000	25.068151
4.400000	25.068151
4.410000	25.068151
4.420000	25.068151
4.430000	25.068151
4.440000	25.068151
4.450000	25.068151
4.460000	25.068151
4.470000	25.068151
4.480000	25.068151
4.490000	25.068151
4.500000	25.087142
4.510000	25.087142
4.520000	25.087142
4.530000	25.087142
4.540000	25.087142
4.550000	25.087142
4.560000	25.087142
4.570000	25.087142
4.580000	25.087142
4.590000	25.087142
4.600000	25.087142
4.610000	25.087142
4.620000	25.087142
4.630000	25.087142
4.640000	25.087142
4.650000	25.087142
4.660000	25.087142
4.670000	25.087142
4.680000	25.087142
4.690000	25.087142
4.700000	25.087142
4.710000	25.087142
4.720000	25.087142
4.730000	25.087142
4.740000	25.087142
4.750000	25.087142
4.760000	25.087142
4.770000	25.087142
4.780000	25.087142
4.790000	25.087142
4.800000	25.087142
4.810000	25.087142
4.820000	25.087142
4.830000	25.087142
4.840000	25.087142
4.850000	25.087142
4.860000	25.087142
4.870000	25.087142
4.880000	25.087142
4.890000	25.087142
4.900000	25.087142
4.910000	25.087142
4.920000	25.087142
4.930000	25.087142
4.940000	25.087142
4.950000	25.087142
4.960000	25.087142
4.970000	25.087142
4.980000	25.087142
4.990000	25.087142
5.000000	25.100194
5.010000	25.100194
5.020000	25.100194
5.030000	25.100194
5.040000	25.100194
5.050000	25.100194
5.060000	25.100194
5.070000	25.100194
5.080000	25.100194
5.090000	25.100194
5.100000	25.100194
5.110000	25.100194
5.120000	25.100194
5.130000	25.100194
5.140000	25.100194
5.150000	25.100194
5.160000	25.100194
5.170000	25.100194
5.180000	25.100194
5.190000	25.100194
5.200000	25.100194
5.210000	25.100194
5.220000	25.100194
5.230000	25.100194
5.240000	25.100194
5.250000	25.100194
5.260000	25.100194
5.270000	25.100194
5.280000	25.100194
5.290000	25.100194
5.300000	25.100194
5.310000	25.100194
5.320000	25.100194
5.330000	25.100194
5.340000	25.100194
5.350000	25.100194
5.360000	25.100194
5.370000	25.100194
5.380000	25.100194
5.390000	25.100194
5.400000	25.100194
5.410000	25.100194
5.420000	25.100194
5.430000	25.100194
5.440000	25.100194
5.450000	25.100194
5.460000	25.100194
5.470000	25.100194
5.480000	25.100194
5.490000	25.100194
5.500000	25.109164
5.510000	25.109164
5.520000	25.109164
5.530000	25.109164
5.540000	25.109164
5.550000	25.109164
5.560000	25.109164
5.570000	25.109164
5.580000	25.109164
5.590000	25.109164
5.600000	25.109164
5.610000	25.109164
5.620000	25.109164
5.630000	25.109164
5.640000	25.109164
5.650000	25.109164
5.660000	25.109164
5.670000	25.109164
5.680000	25.109164
5.690000	25.109164
5.700000	25.109164
5.710000	25.109164
5.720000	25.109164
5.730000	25.109164
5.740000	25.109164
5.750000	25.109164
5.760000	25.109164
5.770000	25.109164
5.780000	25.109164
5.790000	25.109164
5.800000	25.109164
5.810000	25.109164
5.820000	25.109164
5.830000	25.109164
5.840000	25.109164
5.850000	25.109164
5.860000	25.109164
5.870000	25.109164
5.880000	25.109164
5.890000	25.109164
5.900000	25.109164
5.910000	25.109164
5.920000	25.109164
5.930000	25.109164
5.940000	25.109164
5.950000	25.109164
5.960000	25.109164
5.970000	25.109164
5.980000	25.109164
5.990000	25.109164
6.000000	25.113777
6.010000	25.113777
6.020000	25.113777
6.030000	25.113777
6.040000	25.113777
6.050000	25.113777
6.060000	25.113777
6.070000	25.113777
6.080000	25.113777
6.090000	25.113777
6.100000	25.113777
6.110000	25.113777
6.120000	25.113777
6.130000	25.113777
6.140000	25.113777
6.150000	25.113777
6.160000	25.113777
6.170000	25.113777
6.180000	25.113777
6.190000	25.113777
6.200000	25.113777
6.210000	25.113777
6.220000	25.113777
6.230000	25.113777
6.240000	25.113777
6.250000	25.113777
6.260000	25.113777
6.270000	25.113777
6.280000	25.113777
6.290000	25.113777
6.300000	25.113777
6.310000	25.113777
6.320000	25.113777
6.330000	25.113777
6.340000	25.113777
6.350000	25.113777
6.360000	25.113777
6.370000	25.113777
6.380000	25.113777
6.390000	25.113777
6.400000	25.113777
6.410000	25.113777
6.420000	25.113777
6.430000	25.113777
6.440000	25.113777
6.450000	25.113777
6.460000	25.113777
6.470000	25.113777
6.480000	25.113777
6.490000	25.113777
6.500000	25.117641
6.510000	25.117641
6.520000	25.117641
6.530000	25.117641
6.540000	25.117641
6.550000	25.117641
6.560000	25.117641
6.570000	25.117641
6.580000	25.117641
6.590000	25.117641
6.600000	25.117641
6.610000	25.117641
6.620000	25.117641
6.630000	25.117641
6.640000	25.117641
6.650000	25.117641
6.660000	25.117641
6.670000	25.117641
6.680000	25.117641
6.690000	25.117641
6.700000	25.117641
6.710000	25.117641
6.720000	25.117641
6.730000	25.117641
6.740000	25.117641
6.750000	25.117641
6.760000	25.117641
6.770000	25.117641
6.780000	25.117641
6.790000	25.117641
6.800000	25.117641
6.810000	25.117641
6.820000	25.117641
6.830000	25.117641
6.840000	25.117641
6.850000	25.117641
6.860000	25.117641
6.870000	25.117641
6.880000	25.117641
6.890000	25.117641
6.900000	25.117641
6.910000	25.117641
6.920000	25.117641
6.930000	25.117641
6.940000	25.117641
6.950000	25.117641
6.960000	25.117641
6.970000	25.117641
6.980000	25.117641
6.990000	25.117641
7.000000	25.119474
7.010000	25.119474
7.020000	25.119474
7.030000	25.119474
7.040000	25.119474
7.050000	25.119474
7.060000	25.119474
7.070000	25.119474
7.080000	25.119474
7.090000	25.119474
7.100000	25.119474
7.110000	25.119474
7.120000	25.119474
7.130000	25.119474
7.140000	25.119474
7.150000	25.119474
7.160000	25.119474
7.170000	25.119474
7.180000	25.119474
7.190000	25.119474
7.200000	25.119474
7.210000	25.119474
7.220000	25.119474
7.230000	25.119474
7.240000	25.119474
7.250000	25.119474
7.260000	25.119474
7.270000	25.119474
7.280000	25.119474
7.290000	25.119474
7.300000	25.119474
7.310000	25.119474
7.320000	25.119474
7.330000	25.119474
7.340000	25.119474
7.350000	25.119474
7.360000	25.119474
7.370000	25.119474
7.380000	25.119474
7.390000	25.119474
7.400000	25.119474
7.410000	25.119474
7.420000	25.119474
7.430000	25.119474
7.440000	25.119474
7.450000	25.119474
7.460000	25.119474
7.470000	25.119474
7.480000	25.119474
7.490000	25.119474
7.500000	25.119542
7.510000	25.119542
7.520000	25.119542
7.530000	25.119542
7.540000	25.119542
7.550000	25.119542
7.560000	25.119542
7.570000	25.119542
7.580000	25.119542
7.590000	25.119542
7.600000	25.119542
7.610000	25.119542
7.620000	25.119542
7.630000	25.119542
7.640000	25.119542
7.650000	25.119542
7.660000	25.119542
7.670000	25.119542
7.680000	25.119542
7.690000	25.119542
7.700000	25.119542
7.710000	25.119542
7.720000	25.119542
7.730000	25.119542
7.740000	25.119542
7.750000	25.119542
7.760000	25.119542
7.770000	25.119542
7.780000	25.119542
7.790000	25.119542
7.800000	25.119542
7.810000	25.119542
7.820000	25.119542
7.830000	25.119542
7.840000	25.119542
7.850000	25.119542
7.860000	25.119542
7.870000	25.119542
7.880000	25.119542
7.890000	25.119542
7.900000	25.119542
7.910000	25.119542
7.920000	25.119542
7.930000	25.119542
7.940000	25.119542
7.950000	25.119542
7.960000	25.119542
7.970000	25.119542
7.980000	25.119542
7.990000	25.119542
8.000000	25.117684
8.010000	25.117684
8.020000	25.117684
8.030000	25.117684
8.040000	25.117684
8.050000	25.117684
8.060000	25.117684
8.070000	25.117684
8.080000	25.117684
8.090000	25.117684
8.100000	25.117684
8.110000	25.117684
8.120000	25.117684
8.130000	25.117684
8.140000	25.117684
8.150000	25.117684
8.160000	25.117684
8.170000	25.117684
8.180000	25.117684
8.190000	25.117684
8.200000	25.117684
8.210000	25.117684
8.220000	25.117684
8.230000	25.117684
8.240000	25.117684
8.250000	25.117684
8.260000	25.117684
8.270000	25.117684
8.280000	25.117684
8.290000	25.117684
8.300000	25.117684
8.310000	25.117684
8.320000	25.117684
8.330000	25.117684
8.340000	25.117684
8.350000	25.117684
8.360000	25.117684
8.370000	25.117684
8.380000	25.117684
8.390000	25.117684
8.400000	25.117684
8.410000	25.117684
8.420000	25.117684
8.430000	25.117684
8.440000	25.117684
8.450000	25.117684
8.460000	25.117684
8.470000	25.117684
8.480000	25.117684
8.490000	25.117684
8.500000	25.114482
8.510000	25.114482
8.520000	25.114482
8.530000	25.114482
8.540000	25.114482
8.550000	25.114482
8.560000	25.114482
8.570000	25.114482
8.580000	25.114482
8.590000	25.114482
8.600000	25.114482
8.610000	25.114482
8.620000	25.114482
8.630000	25.114482
8.640000	25.114482
8.650000	25.114482
8.660000	25.114482
8.670000	25.114482
8.680000	25.114482
8.690000	25.114482
8.700000	25.114482
8.710000	25.114482
8.720000	25.114482
8.730000	25.114482
8.740000	25.114482
8.750000	25.114482
8.760000	25.114482
8.770000	25.114482
8.780000	25.114482
8.790000	25.114482
8.800000	25.114482
8.810000	25.114482
8.820000	25.114482
8.830000	25.114482
8.840000	25.114482
8.850000	25.114482
8.860000	25.114482
8.870000	25.114482
8.880000	25.114482
8.890000	25.114482
8.900000	25.114482
8.910000	25.114482
8.920000	25.114482
8.930000	25.114482
8.940000	25.114482
8.950000	25.114482
8.960000	25.114482
8.970000	25.114482
8.980000	25.114482
8.990000	25.114482
9.000000	25.112684
9.010000	25.112684
9.020000	25.112684
9.030000	25.112684
9.040000	25.112684
9.050000	25.112684
9.060000	25.112684
9.070000	25.112684
9.080000	25.112684
9.090000	25.112684
9.100000	25.112684
9.110000	25.112684
9.120000	25.112684
9.130000	25.112684
9.140000	25.112684
9.150000	25.112684
9.160000	25.112684
9.170000	25.112684
9.180000	25.112684
9.190000	25.112684
9.200000	25.112684
9.210000	25.112684
9.220000	25.112684
9.230000	25.112684
9.240000	25.112684
9.250000	25.112684
9.260000	25.112684
9.270000	25.112684
9.280000	25.112684
9.290000	25.112684
9.300000	25.112684
9.310000	25.112684
9.320000	25.112684
9.330000	25.112684
9.340000	25.112684
9.350000	25.112684
9.360000	25.112684
9.370000	25.112684
9.380000	25.112684
9.390000	25.112684
9.400000	25.112684
9.410000	25.112684
9.420000	25.112684
9.430000	25.112684
9.440000	25.112684
9.450000	25.112684
9.460000	25.112684
9.470000	25.112684
9.480000	25.112684
9.490000	25.112684
9.500000	25.110532
9.510000	25.110532
9.520000	25.110532
9.530000	25.110532
9.540000	25.110532
9.550000	25.110532
9.560000	25.110532
9.570000	25.110532
9.580000	25.110532
9.590000	25.110532
9.600000	25.110532
9.610000	25.110532
9.620000	25.110532
9.630000	25.110532
9.640000	25.110532
9.650000	25.110532
9.660000	25.110532
9.670000	25.110532
9.680000	25.110532
9.690000	25.110532
9.700000	25.110532
9.710000	25.110532
9.720000	25.110532
9.730000	25.110532
9.740000	25.110532
9.750000	25.110532
9.760000	25.110532
