LabVIEW Measurement	
Writer_Version	2
Reader_Version	2
Separator	Tab
Decimal_Separator	.
Multi_Headings	No
X_Columns	One
Time_Pref	Absolute
Operator	biomech-dyno
Date	2023/04/27
Time	17:41:55.9338632999999876419
***End_of_Header***	
	
Channels	1	
Samples	10	
Date	2023/04/27	
Time	20:28:18.8077035999995351725	
X_Dimension	Time	
X0	0.0000000000000000E+0	
Delta_X	0.010000	
***End_of_Header***		
X_Value	Untitled	Comment
0.000000	25.196625
0.010000	25.196625
0.020000	25.196625
0.030000	25.196625
0.040000	25.196625
0.050000	25.196625
0.060000	25.196625
0.070000	25.196625
0.080000	25.196625
0.090000	25.196625
0.100000	25.196625
0.110000	25.196625
0.120000	25.196625
0.130000	25.196625
0.140000	25.196625
0.150000	25.196625
0.160000	25.196625
0.170000	25.196625
0.180000	25.196625
0.190000	25.196625
0.200000	25.196625
0.210000	25.196625
0.220000	25.196625
0.230000	25.196625
0.240000	25.196625
0.250000	25.196625
0.260000	25.196625
0.270000	25.196625
0.280000	25.196625
0.290000	25.196625
0.300000	25.196625
0.310000	25.196625
0.320000	25.196625
0.330000	25.196625
0.340000	25.196625
0.350000	25.196625
0.360000	25.196625
0.370000	25.196625
0.380000	25.196625
0.390000	25.196625
0.400000	25.196625
0.410000	25.196625
0.420000	25.196625
0.430000	25.196625
0.440000	25.196625
0.450000	25.196625
0.460000	25.196625
0.470000	25.196625
0.480000	25.196625
0.490000	25.196625
0.500000	25.272943
0.510000	25.272943
0.520000	25.272943
0.530000	25.272943
0.540000	25.272943
0.550000	25.272943
0.560000	25.272943
0.570000	25.272943
0.580000	25.272943
0.590000	25.272943
0.600000	25.272943
0.610000	25.272943
0.620000	25.272943
0.630000	25.272943
0.640000	25.272943
0.650000	25.272943
0.660000	25.272943
0.670000	25.272943
0.680000	25.272943
0.690000	25.272943
0.700000	25.272943
0.710000	25.272943
0.720000	25.272943
0.730000	25.272943
0.740000	25.272943
0.750000	25.272943
0.760000	25.272943
0.770000	25.272943
0.780000	25.272943
0.790000	25.272943
0.800000	25.272943
0.810000	25.272943
0.820000	25.272943
0.830000	25.272943
0.840000	25.272943
0.850000	25.272943
0.860000	25.272943
0.870000	25.272943
0.880000	25.272943
0.890000	25.272943
0.900000	25.272943
0.910000	25.272943
0.920000	25.272943
0.930000	25.272943
0.940000	25.272943
0.950000	25.272943
0.960000	25.272943
0.970000	25.272943
0.980000	25.272943
0.990000	25.272943
1.000000	25.982567
1.010000	25.982567
1.020000	25.982567
1.030000	25.982567
1.040000	25.982567
1.050000	25.982567
1.060000	25.982567
1.070000	25.982567
1.080000	25.982567
1.090000	25.982567
1.100000	25.982567
1.110000	25.982567
1.120000	25.982567
1.130000	25.982567
1.140000	25.982567
1.150000	25.982567
1.160000	25.982567
1.170000	25.982567
1.180000	25.982567
1.190000	25.982567
1.200000	25.982567
1.210000	25.982567
1.220000	25.982567
1.230000	25.982567
1.240000	25.982567
1.250000	25.982567
1.260000	25.982567
1.270000	25.982567
1.280000	25.982567
1.290000	25.982567
1.300000	25.982567
1.310000	25.982567
1.320000	25.982567
1.330000	25.982567
1.340000	25.982567
1.350000	25.982567
1.360000	25.982567
1.370000	25.982567
1.380000	25.982567
1.390000	25.982567
1.400000	25.982567
1.410000	25.982567
1.420000	25.982567
1.430000	25.982567
1.440000	25.982567
1.450000	25.982567
1.460000	25.982567
1.470000	25.982567
1.480000	25.982567
1.490000	25.982567
1.500000	27.620892
1.510000	27.620892
1.520000	27.620892
1.530000	27.620892
1.540000	27.620892
1.550000	27.620892
1.560000	27.620892
1.570000	27.620892
1.580000	27.620892
1.590000	27.620892
1.600000	27.620892
1.610000	27.620892
1.620000	27.620892
1.630000	27.620892
1.640000	27.620892
1.650000	27.620892
1.660000	27.620892
1.670000	27.620892
1.680000	27.620892
1.690000	27.620892
1.700000	27.620892
1.710000	27.620892
1.720000	27.620892
1.730000	27.620892
1.740000	27.620892
1.750000	27.620892
1.760000	27.620892
1.770000	27.620892
1.780000	27.620892
1.790000	27.620892
1.800000	27.620892
1.810000	27.620892
1.820000	27.620892
1.830000	27.620892
1.840000	27.620892
1.850000	27.620892
1.860000	27.620892
1.870000	27.620892
1.880000	27.620892
1.890000	27.620892
1.900000	27.620892
1.910000	27.620892
1.920000	27.620892
1.930000	27.620892
1.940000	27.620892
1.950000	27.620892
1.960000	27.620892
1.970000	27.620892
1.980000	27.620892
1.990000	27.620892
2.000000	29.995564
2.010000	29.995564
2.020000	29.995564
2.030000	29.995564
2.040000	29.995564
2.050000	29.995564
2.060000	29.995564
2.070000	29.995564
2.080000	29.995564
2.090000	29.995564
2.100000	29.995564
2.110000	29.995564
2.120000	29.995564
2.130000	29.995564
2.140000	29.995564
2.150000	29.995564
2.160000	29.995564
2.170000	29.995564
2.180000	29.995564
2.190000	29.995564
2.200000	29.995564
2.210000	29.995564
2.220000	29.995564
2.230000	29.995564
2.240000	29.995564
2.250000	29.995564
2.260000	29.995564
2.270000	29.995564
2.280000	29.995564
2.290000	29.995564
2.300000	29.995564
2.310000	29.995564
2.320000	29.995564
2.330000	29.995564
2.340000	29.995564
2.350000	29.995564
2.360000	29.995564
2.370000	29.995564
2.380000	29.995564
2.390000	29.995564
2.400000	29.995564
2.410000	29.995564
2.420000	29.995564
2.430000	29.995564
2.440000	29.995564
2.450000	29.995564
2.460000	29.995564
2.470000	29.995564
2.480000	29.995564
2.490000	29.995564
2.500000	32.879145
2.510000	32.879145
2.520000	32.879145
2.530000	32.879145
2.540000	32.879145
2.550000	32.879145
2.560000	32.879145
2.570000	32.879145
2.580000	32.879145
2.590000	32.879145
2.600000	32.879145
2.610000	32.879145
2.620000	32.879145
2.630000	32.879145
2.640000	32.879145
2.650000	32.879145
2.660000	32.879145
2.670000	32.879145
2.680000	32.879145
2.690000	32.879145
2.700000	32.879145
2.710000	32.879145
2.720000	32.879145
2.730000	32.879145
2.740000	32.879145
2.750000	32.879145
2.760000	32.879145
2.770000	32.879145
2.780000	32.879145
2.790000	32.879145
2.800000	32.879145
2.810000	32.879145
2.820000	32.879145
2.830000	32.879145
2.840000	32.879145
2.850000	32.879145
2.860000	32.879145
2.870000	32.879145
2.880000	32.879145
2.890000	32.879145
2.900000	32.879145
2.910000	32.879145
2.920000	32.879145
2.930000	32.879145
2.940000	32.879145
2.950000	32.879145
2.960000	32.879145
2.970000	32.879145
2.980000	32.879145
2.990000	32.879145
3.000000	35.956750
3.010000	35.956750
3.020000	35.956750
3.030000	35.956750
3.040000	35.956750
3.050000	35.956750
3.060000	35.956750
3.070000	35.956750
3.080000	35.956750
3.090000	35.956750
3.100000	35.956750
3.110000	35.956750
3.120000	35.956750
3.130000	35.956750
3.140000	35.956750
3.150000	35.956750
3.160000	35.956750
3.170000	35.956750
3.180000	35.956750
3.190000	35.956750
3.200000	35.956750
3.210000	35.956750
3.220000	35.956750
3.230000	35.956750
3.240000	35.956750
3.250000	35.956750
3.260000	35.956750
3.270000	35.956750
3.280000	35.956750
3.290000	35.956750
3.300000	35.956750
3.310000	35.956750
3.320000	35.956750
3.330000	35.956750
3.340000	35.956750
3.350000	35.956750
3.360000	35.956750
3.370000	35.956750
3.380000	35.956750
3.390000	35.956750
3.400000	35.956750
3.410000	35.956750
3.420000	35.956750
3.430000	35.956750
3.440000	35.956750
3.450000	35.956750
3.460000	35.956750
3.470000	35.956750
3.480000	35.956750
3.490000	35.956750
3.500000	38.502362
3.510000	38.502362
3.520000	38.502362
3.530000	38.502362
3.540000	38.502362
3.550000	38.502362
3.560000	38.502362
3.570000	38.502362
3.580000	38.502362
3.590000	38.502362
3.600000	38.502362
3.610000	38.502362
3.620000	38.502362
3.630000	38.502362
3.640000	38.502362
3.650000	38.502362
3.660000	38.502362
3.670000	38.502362
3.680000	38.502362
3.690000	38.502362
3.700000	38.502362
3.710000	38.502362
3.720000	38.502362
3.730000	38.502362
3.740000	38.502362
3.750000	38.502362
3.760000	38.502362
3.770000	38.502362
3.780000	38.502362
3.790000	38.502362
3.800000	38.502362
3.810000	38.502362
3.820000	38.502362
3.830000	38.502362
3.840000	38.502362
3.850000	38.502362
3.860000	38.502362
3.870000	38.502362
3.880000	38.502362
3.890000	38.502362
3.900000	38.502362
3.910000	38.502362
3.920000	38.502362
3.930000	38.502362
3.940000	38.502362
3.950000	38.502362
3.960000	38.502362
3.970000	38.502362
3.980000	38.502362
3.990000	38.502362
4.000000	40.392558
4.010000	40.392558
4.020000	40.392558
4.030000	40.392558
4.040000	40.392558
4.050000	40.392558
4.060000	40.392558
4.070000	40.392558
4.080000	40.392558
4.090000	40.392558
4.100000	40.392558
4.110000	40.392558
4.120000	40.392558
4.130000	40.392558
4.140000	40.392558
4.150000	40.392558
4.160000	40.392558
4.170000	40.392558
4.180000	40.392558
4.190000	40.392558
4.200000	40.392558
4.210000	40.392558
4.220000	40.392558
4.230000	40.392558
4.240000	40.392558
4.250000	40.392558
4.260000	40.392558
4.270000	40.392558
4.280000	40.392558
4.290000	40.392558
4.300000	40.392558
4.310000	40.392558
4.320000	40.392558
4.330000	40.392558
4.340000	40.392558
4.350000	40.392558
4.360000	40.392558
4.370000	40.392558
4.380000	40.392558
4.390000	40.392558
4.400000	40.392558
4.410000	40.392558
4.420000	40.392558
4.430000	40.392558
4.440000	40.392558
4.450000	40.392558
4.460000	40.392558
4.470000	40.392558
4.480000	40.392558
4.490000	40.392558
4.500000	41.721743
4.510000	41.721743
4.520000	41.721743
4.530000	41.721743
4.540000	41.721743
4.550000	41.721743
4.560000	41.721743
4.570000	41.721743
4.580000	41.721743
4.590000	41.721743
4.600000	41.721743
4.610000	41.721743
4.620000	41.721743
4.630000	41.721743
4.640000	41.721743
4.650000	41.721743
4.660000	41.721743
4.670000	41.721743
4.680000	41.721743
4.690000	41.721743
4.700000	41.721743
4.710000	41.721743
4.720000	41.721743
4.730000	41.721743
4.740000	41.721743
4.750000	41.721743
4.760000	41.721743
4.770000	41.721743
4.780000	41.721743
4.790000	41.721743
4.800000	41.721743
4.810000	41.721743
4.820000	41.721743
4.830000	41.721743
4.840000	41.721743
4.850000	41.721743
4.860000	41.721743
4.870000	41.721743
4.880000	41.721743
4.890000	41.721743
4.900000	41.721743
4.910000	41.721743
4.920000	41.721743
4.930000	41.721743
4.940000	41.721743
4.950000	41.721743
4.960000	41.721743
4.970000	41.721743
4.980000	41.721743
4.990000	41.721743
5.000000	42.632221
5.010000	42.632221
5.020000	42.632221
5.030000	42.632221
5.040000	42.632221
5.050000	42.632221
5.060000	42.632221
5.070000	42.632221
5.080000	42.632221
5.090000	42.632221
5.100000	42.632221
5.110000	42.632221
5.120000	42.632221
5.130000	42.632221
5.140000	42.632221
5.150000	42.632221
5.160000	42.632221
5.170000	42.632221
5.180000	42.632221
5.190000	42.632221
5.200000	42.632221
5.210000	42.632221
5.220000	42.632221
5.230000	42.632221
5.240000	42.632221
5.250000	42.632221
5.260000	42.632221
5.270000	42.632221
5.280000	42.632221
5.290000	42.632221
5.300000	42.632221
5.310000	42.632221
5.320000	42.632221
5.330000	42.632221
5.340000	42.632221
5.350000	42.632221
5.360000	42.632221
5.370000	42.632221
5.380000	42.632221
5.390000	42.632221
5.400000	42.632221
5.410000	42.632221
5.420000	42.632221
5.430000	42.632221
5.440000	42.632221
5.450000	42.632221
5.460000	42.632221
5.470000	42.632221
5.480000	42.632221
5.490000	42.632221
5.500000	43.226898
5.510000	43.226898
5.520000	43.226898
5.530000	43.226898
5.540000	43.226898
5.550000	43.226898
5.560000	43.226898
5.570000	43.226898
5.580000	43.226898
5.590000	43.226898
5.600000	43.226898
5.610000	43.226898
5.620000	43.226898
5.630000	43.226898
5.640000	43.226898
5.650000	43.226898
5.660000	43.226898
5.670000	43.226898
5.680000	43.226898
5.690000	43.226898
5.700000	43.226898
5.710000	43.226898
5.720000	43.226898
5.730000	43.226898
5.740000	43.226898
5.750000	43.226898
5.760000	43.226898
5.770000	43.226898
5.780000	43.226898
5.790000	43.226898
5.800000	43.226898
5.810000	43.226898
5.820000	43.226898
5.830000	43.226898
5.840000	43.226898
5.850000	43.226898
5.860000	43.226898
5.870000	43.226898
5.880000	43.226898
5.890000	43.226898
5.900000	43.226898
5.910000	43.226898
5.920000	43.226898
5.930000	43.226898
5.940000	43.226898
5.950000	43.226898
5.960000	43.226898
5.970000	43.226898
5.980000	43.226898
5.990000	43.226898
6.000000	43.582048
6.010000	43.582048
6.020000	43.582048
6.030000	43.582048
6.040000	43.582048
6.050000	43.582048
6.060000	43.582048
6.070000	43.582048
6.080000	43.582048
6.090000	43.582048
6.100000	43.582048
6.110000	43.582048
6.120000	43.582048
6.130000	43.582048
6.140000	43.582048
6.150000	43.582048
6.160000	43.582048
6.170000	43.582048
6.180000	43.582048
6.190000	43.582048
6.200000	43.582048
6.210000	43.582048
6.220000	43.582048
6.230000	43.582048
6.240000	43.582048
6.250000	43.582048
6.260000	43.582048
6.270000	43.582048
6.280000	43.582048
6.290000	43.582048
6.300000	43.582048
6.310000	43.582048
6.320000	43.582048
6.330000	43.582048
6.340000	43.582048
6.350000	43.582048
6.360000	43.582048
6.370000	43.582048
6.380000	43.582048
6.390000	43.582048
6.400000	43.582048
6.410000	43.582048
6.420000	43.582048
6.430000	43.582048
6.440000	43.582048
6.450000	43.582048
6.460000	43.582048
6.470000	43.582048
6.480000	43.582048
6.490000	43.582048
6.500000	43.761870
6.510000	43.761870
6.520000	43.761870
6.530000	43.761870
6.540000	43.761870
6.550000	43.761870
6.560000	43.761870
6.570000	43.761870
6.580000	43.761870
6.590000	43.761870
6.600000	43.761870
6.610000	43.761870
6.620000	43.761870
6.630000	43.761870
6.640000	43.761870
6.650000	43.761870
6.660000	43.761870
6.670000	43.761870
6.680000	43.761870
6.690000	43.761870
6.700000	43.761870
6.710000	43.761870
6.720000	43.761870
6.730000	43.761870
6.740000	43.761870
6.750000	43.761870
6.760000	43.761870
6.770000	43.761870
6.780000	43.761870
6.790000	43.761870
6.800000	43.761870
6.810000	43.761870
6.820000	43.761870
6.830000	43.761870
6.840000	43.761870
6.850000	43.761870
6.860000	43.761870
6.870000	43.761870
6.880000	43.761870
6.890000	43.761870
6.900000	43.761870
6.910000	43.761870
6.920000	43.761870
6.930000	43.761870
6.940000	43.761870
6.950000	43.761870
6.960000	43.761870
6.970000	43.761870
6.980000	43.761870
6.990000	43.761870
7.000000	43.803007
7.010000	43.803007
7.020000	43.803007
7.030000	43.803007
7.040000	43.803007
7.050000	43.803007
7.060000	43.803007
7.070000	43.803007
7.080000	43.803007
7.090000	43.803007
7.100000	43.803007
7.110000	43.803007
7.120000	43.803007
7.130000	43.803007
7.140000	43.803007
7.150000	43.803007
7.160000	43.803007
7.170000	43.803007
7.180000	43.803007
7.190000	43.803007
7.200000	43.803007
7.210000	43.803007
7.220000	43.803007
7.230000	43.803007
7.240000	43.803007
7.250000	43.803007
7.260000	43.803007
7.270000	43.803007
7.280000	43.803007
7.290000	43.803007
7.300000	43.803007
7.310000	43.803007
7.320000	43.803007
7.330000	43.803007
7.340000	43.803007
7.350000	43.803007
7.360000	43.803007
7.370000	43.803007
7.380000	43.803007
7.390000	43.803007
7.400000	43.803007
7.410000	43.803007
7.420000	43.803007
7.430000	43.803007
7.440000	43.803007
7.450000	43.803007
7.460000	43.803007
7.470000	43.803007
7.480000	43.803007
7.490000	43.803007
7.500000	43.740485
7.510000	43.740485
7.520000	43.740485
7.530000	43.740485
7.540000	43.740485
7.550000	43.740485
7.560000	43.740485
7.570000	43.740485
7.580000	43.740485
7.590000	43.740485
7.600000	43.740485
7.610000	43.740485
7.620000	43.740485
7.630000	43.740485
7.640000	43.740485
7.650000	43.740485
7.660000	43.740485
7.670000	43.740485
7.680000	43.740485
7.690000	43.740485
7.700000	43.740485
7.710000	43.740485
7.720000	43.740485
7.730000	43.740485
7.740000	43.740485
7.750000	43.740485
7.760000	43.740485
7.770000	43.740485
7.780000	43.740485
7.790000	43.740485
7.800000	43.740485
7.810000	43.740485
7.820000	43.740485
7.830000	43.740485
7.840000	43.740485
7.850000	43.740485
7.860000	43.740485
7.870000	43.740485
7.880000	43.740485
7.890000	43.740485
7.900000	43.740485
7.910000	43.740485
7.920000	43.740485
7.930000	43.740485
7.940000	43.740485
7.950000	43.740485
7.960000	43.740485
7.970000	43.740485
7.980000	43.740485
7.990000	43.740485
8.000000	43.608284
8.010000	43.608284
8.020000	43.608284
8.030000	43.608284
8.040000	43.608284
8.050000	43.608284
8.060000	43.608284
8.070000	43.608284
8.080000	43.608284
8.090000	43.608284
8.100000	43.608284
8.110000	43.608284
8.120000	43.608284
8.130000	43.608284
8.140000	43.608284
8.150000	43.608284
8.160000	43.608284
8.170000	43.608284
8.180000	43.608284
8.190000	43.608284
8.200000	43.608284
8.210000	43.608284
8.220000	43.608284
8.230000	43.608284
8.240000	43.608284
8.250000	43.608284
8.260000	43.608284
8.270000	43.608284
8.280000	43.608284
8.290000	43.608284
8.300000	43.608284
8.310000	43.608284
8.320000	43.608284
8.330000	43.608284
8.340000	43.608284
8.350000	43.608284
8.360000	43.608284
8.370000	43.608284
8.380000	43.608284
8.390000	43.608284
8.400000	43.608284
8.410000	43.608284
8.420000	43.608284
8.430000	43.608284
8.440000	43.608284
8.450000	43.608284
8.460000	43.608284
8.470000	43.608284
8.480000	43.608284
8.490000	43.608284
8.500000	43.423727
8.510000	43.423727
8.520000	43.423727
8.530000	43.423727
8.540000	43.423727
8.550000	43.423727
8.560000	43.423727
8.570000	43.423727
8.580000	43.423727
8.590000	43.423727
8.600000	43.423727
8.610000	43.423727
8.620000	43.423727
8.630000	43.423727
8.640000	43.423727
8.650000	43.423727
8.660000	43.423727
8.670000	43.423727
8.680000	43.423727
8.690000	43.423727
8.700000	43.423727
8.710000	43.423727
8.720000	43.423727
8.730000	43.423727
8.740000	43.423727
8.750000	43.423727
8.760000	43.423727
8.770000	43.423727
8.780000	43.423727
8.790000	43.423727
8.800000	43.423727
8.810000	43.423727
8.820000	43.423727
8.830000	43.423727
8.840000	43.423727
8.850000	43.423727
8.860000	43.423727
8.870000	43.423727
8.880000	43.423727
8.890000	43.423727
8.900000	43.423727
8.910000	43.423727
8.920000	43.423727
8.930000	43.423727
8.940000	43.423727
8.950000	43.423727
8.960000	43.423727
8.970000	43.423727
8.980000	43.423727
8.990000	43.423727
9.000000	43.187877
9.010000	43.187877
9.020000	43.187877
9.030000	43.187877
9.040000	43.187877
9.050000	43.187877
9.060000	43.187877
9.070000	43.187877
9.080000	43.187877
9.090000	43.187877
9.100000	43.187877
9.110000	43.187877
9.120000	43.187877
9.130000	43.187877
9.140000	43.187877
9.150000	43.187877
9.160000	43.187877
9.170000	43.187877
9.180000	43.187877
9.190000	43.187877
9.200000	43.187877
9.210000	43.187877
9.220000	43.187877
9.230000	43.187877
9.240000	43.187877
9.250000	43.187877
9.260000	43.187877
9.270000	43.187877
9.280000	43.187877
9.290000	43.187877
9.300000	43.187877
9.310000	43.187877
9.320000	43.187877
9.330000	43.187877
9.340000	43.187877
9.350000	43.187877
9.360000	43.187877
9.370000	43.187877
9.380000	43.187877
9.390000	43.187877
9.400000	43.187877
9.410000	43.187877
9.420000	43.187877
9.430000	43.187877
9.440000	43.187877
9.450000	43.187877
9.460000	43.187877
9.470000	43.187877
9.480000	43.187877
9.490000	43.187877
9.500000	42.915326
9.510000	42.915326
9.520000	42.915326
9.530000	42.915326
9.540000	42.915326
9.550000	42.915326
9.560000	42.915326
9.570000	42.915326
9.580000	42.915326
9.590000	42.915326
9.600000	42.915326
9.610000	42.915326
9.620000	42.915326
9.630000	42.915326
9.640000	42.915326
9.650000	42.915326
9.660000	42.915326
9.670000	42.915326
9.680000	42.915326
9.690000	42.915326
9.700000	42.915326
9.710000	42.915326
9.720000	42.915326
9.730000	42.915326
9.740000	42.915326
9.750000	42.915326
9.760000	42.915326
