LabVIEW Measurement	
Writer_Version	2
Reader_Version	2
Separator	Tab
Decimal_Separator	.
Multi_Headings	No
X_Columns	One
Time_Pref	Absolute
Operator	biomech-dyno
Date	2023/04/27
Time	17:41:55.9338632999999876419
***End_of_Header***	
	
Channels	1	
Samples	10	
Date	2023/04/27	
Time	18:40:10.9923025999999573824	
X_Dimension	Time	
X0	0.0000000000000000E+0	
Delta_X	0.010000	
***End_of_Header***		
X_Value	Untitled	Comment
0.000000	25.139708
0.010000	25.139708
0.020000	25.139708
0.030000	25.139708
0.040000	25.139708
0.050000	25.139708
0.060000	25.139708
0.070000	25.139708
0.080000	25.139708
0.090000	25.139708
0.100000	25.139708
0.110000	25.139708
0.120000	25.139708
0.130000	25.139708
0.140000	25.139708
0.150000	25.139708
0.160000	25.139708
0.170000	25.139708
0.180000	25.139708
0.190000	25.139708
0.200000	25.139708
0.210000	25.139708
0.220000	25.139708
0.230000	25.139708
0.240000	25.139708
0.250000	25.139708
0.260000	25.139708
0.270000	25.139708
0.280000	25.139708
0.290000	25.139708
0.300000	25.139708
0.310000	25.139708
0.320000	25.139708
0.330000	25.139708
0.340000	25.139708
0.350000	25.139708
0.360000	25.139708
0.370000	25.139708
0.380000	25.139708
0.390000	25.139708
0.400000	25.139708
0.410000	25.139708
0.420000	25.139708
0.430000	25.139708
0.440000	25.139708
0.450000	25.139708
0.460000	25.139708
0.470000	25.139708
0.480000	25.139708
0.490000	25.139708
0.500000	25.201213
0.510000	25.201213
0.520000	25.201213
0.530000	25.201213
0.540000	25.201213
0.550000	25.201213
0.560000	25.201213
0.570000	25.201213
0.580000	25.201213
0.590000	25.201213
0.600000	25.201213
0.610000	25.201213
0.620000	25.201213
0.630000	25.201213
0.640000	25.201213
0.650000	25.201213
0.660000	25.201213
0.670000	25.201213
0.680000	25.201213
0.690000	25.201213
0.700000	25.201213
0.710000	25.201213
0.720000	25.201213
0.730000	25.201213
0.740000	25.201213
0.750000	25.201213
0.760000	25.201213
0.770000	25.201213
0.780000	25.201213
0.790000	25.201213
0.800000	25.201213
0.810000	25.201213
0.820000	25.201213
0.830000	25.201213
0.840000	25.201213
0.850000	25.201213
0.860000	25.201213
0.870000	25.201213
0.880000	25.201213
0.890000	25.201213
0.900000	25.201213
0.910000	25.201213
0.920000	25.201213
0.930000	25.201213
0.940000	25.201213
0.950000	25.201213
0.960000	25.201213
0.970000	25.201213
0.980000	25.201213
0.990000	25.201213
1.000000	25.912381
1.010000	25.912381
1.020000	25.912381
1.030000	25.912381
1.040000	25.912381
1.050000	25.912381
1.060000	25.912381
1.070000	25.912381
1.080000	25.912381
1.090000	25.912381
1.100000	25.912381
1.110000	25.912381
1.120000	25.912381
1.130000	25.912381
1.140000	25.912381
1.150000	25.912381
1.160000	25.912381
1.170000	25.912381
1.180000	25.912381
1.190000	25.912381
1.200000	25.912381
1.210000	25.912381
1.220000	25.912381
1.230000	25.912381
1.240000	25.912381
1.250000	25.912381
1.260000	25.912381
1.270000	25.912381
1.280000	25.912381
1.290000	25.912381
1.300000	25.912381
1.310000	25.912381
1.320000	25.912381
1.330000	25.912381
1.340000	25.912381
1.350000	25.912381
1.360000	25.912381
1.370000	25.912381
1.380000	25.912381
1.390000	25.912381
1.400000	25.912381
1.410000	25.912381
1.420000	25.912381
1.430000	25.912381
1.440000	25.912381
1.450000	25.912381
1.460000	25.912381
1.470000	25.912381
1.480000	25.912381
1.490000	25.912381
1.500000	27.600739
1.510000	27.600739
1.520000	27.600739
1.530000	27.600739
1.540000	27.600739
1.550000	27.600739
1.560000	27.600739
1.570000	27.600739
1.580000	27.600739
1.590000	27.600739
1.600000	27.600739
1.610000	27.600739
1.620000	27.600739
1.630000	27.600739
1.640000	27.600739
1.650000	27.600739
1.660000	27.600739
1.670000	27.600739
1.680000	27.600739
1.690000	27.600739
1.700000	27.600739
1.710000	27.600739
1.720000	27.600739
1.730000	27.600739
1.740000	27.600739
1.750000	27.600739
1.760000	27.600739
1.770000	27.600739
1.780000	27.600739
1.790000	27.600739
1.800000	27.600739
1.810000	27.600739
1.820000	27.600739
1.830000	27.600739
1.840000	27.600739
1.850000	27.600739
1.860000	27.600739
1.870000	27.600739
1.880000	27.600739
1.890000	27.600739
1.900000	27.600739
1.910000	27.600739
1.920000	27.600739
1.930000	27.600739
1.940000	27.600739
1.950000	27.600739
1.960000	27.600739
1.970000	27.600739
1.980000	27.600739
1.990000	27.600739
2.000000	30.103882
2.010000	30.103882
2.020000	30.103882
2.030000	30.103882
2.040000	30.103882
2.050000	30.103882
2.060000	30.103882
2.070000	30.103882
2.080000	30.103882
2.090000	30.103882
2.100000	30.103882
2.110000	30.103882
2.120000	30.103882
2.130000	30.103882
2.140000	30.103882
2.150000	30.103882
2.160000	30.103882
2.170000	30.103882
2.180000	30.103882
2.190000	30.103882
2.200000	30.103882
2.210000	30.103882
2.220000	30.103882
2.230000	30.103882
2.240000	30.103882
2.250000	30.103882
2.260000	30.103882
2.270000	30.103882
2.280000	30.103882
2.290000	30.103882
2.300000	30.103882
2.310000	30.103882
2.320000	30.103882
2.330000	30.103882
2.340000	30.103882
2.350000	30.103882
2.360000	30.103882
2.370000	30.103882
2.380000	30.103882
2.390000	30.103882
2.400000	30.103882
2.410000	30.103882
2.420000	30.103882
2.430000	30.103882
2.440000	30.103882
2.450000	30.103882
2.460000	30.103882
2.470000	30.103882
2.480000	30.103882
2.490000	30.103882
2.500000	33.219287
2.510000	33.219287
2.520000	33.219287
2.530000	33.219287
2.540000	33.219287
2.550000	33.219287
2.560000	33.219287
2.570000	33.219287
2.580000	33.219287
2.590000	33.219287
2.600000	33.219287
2.610000	33.219287
2.620000	33.219287
2.630000	33.219287
2.640000	33.219287
2.650000	33.219287
2.660000	33.219287
2.670000	33.219287
2.680000	33.219287
2.690000	33.219287
2.700000	33.219287
2.710000	33.219287
2.720000	33.219287
2.730000	33.219287
2.740000	33.219287
2.750000	33.219287
2.760000	33.219287
2.770000	33.219287
2.780000	33.219287
2.790000	33.219287
2.800000	33.219287
2.810000	33.219287
2.820000	33.219287
2.830000	33.219287
2.840000	33.219287
2.850000	33.219287
2.860000	33.219287
2.870000	33.219287
2.880000	33.219287
2.890000	33.219287
2.900000	33.219287
2.910000	33.219287
2.920000	33.219287
2.930000	33.219287
2.940000	33.219287
2.950000	33.219287
2.960000	33.219287
2.970000	33.219287
2.980000	33.219287
2.990000	33.219287
3.000000	36.731982
3.010000	36.731982
3.020000	36.731982
3.030000	36.731982
3.040000	36.731982
3.050000	36.731982
3.060000	36.731982
3.070000	36.731982
3.080000	36.731982
3.090000	36.731982
3.100000	36.731982
3.110000	36.731982
3.120000	36.731982
3.130000	36.731982
3.140000	36.731982
3.150000	36.731982
3.160000	36.731982
3.170000	36.731982
3.180000	36.731982
3.190000	36.731982
3.200000	36.731982
3.210000	36.731982
3.220000	36.731982
3.230000	36.731982
3.240000	36.731982
3.250000	36.731982
3.260000	36.731982
3.270000	36.731982
3.280000	36.731982
3.290000	36.731982
3.300000	36.731982
3.310000	36.731982
3.320000	36.731982
3.330000	36.731982
3.340000	36.731982
3.350000	36.731982
3.360000	36.731982
3.370000	36.731982
3.380000	36.731982
3.390000	36.731982
3.400000	36.731982
3.410000	36.731982
3.420000	36.731982
3.430000	36.731982
3.440000	36.731982
3.450000	36.731982
3.460000	36.731982
3.470000	36.731982
3.480000	36.731982
3.490000	36.731982
3.500000	39.862401
3.510000	39.862401
3.520000	39.862401
3.530000	39.862401
3.540000	39.862401
3.550000	39.862401
3.560000	39.862401
3.570000	39.862401
3.580000	39.862401
3.590000	39.862401
3.600000	39.862401
3.610000	39.862401
3.620000	39.862401
3.630000	39.862401
3.640000	39.862401
3.650000	39.862401
3.660000	39.862401
3.670000	39.862401
3.680000	39.862401
3.690000	39.862401
3.700000	39.862401
3.710000	39.862401
3.720000	39.862401
3.730000	39.862401
3.740000	39.862401
3.750000	39.862401
3.760000	39.862401
3.770000	39.862401
3.780000	39.862401
3.790000	39.862401
3.800000	39.862401
3.810000	39.862401
3.820000	39.862401
3.830000	39.862401
3.840000	39.862401
3.850000	39.862401
3.860000	39.862401
3.870000	39.862401
3.880000	39.862401
3.890000	39.862401
3.900000	39.862401
3.910000	39.862401
3.920000	39.862401
3.930000	39.862401
3.940000	39.862401
3.950000	39.862401
3.960000	39.862401
3.970000	39.862401
3.980000	39.862401
3.990000	39.862401
4.000000	42.202897
4.010000	42.202897
4.020000	42.202897
4.030000	42.202897
4.040000	42.202897
4.050000	42.202897
4.060000	42.202897
4.070000	42.202897
4.080000	42.202897
4.090000	42.202897
4.100000	42.202897
4.110000	42.202897
4.120000	42.202897
4.130000	42.202897
4.140000	42.202897
4.150000	42.202897
4.160000	42.202897
4.170000	42.202897
4.180000	42.202897
4.190000	42.202897
4.200000	42.202897
4.210000	42.202897
4.220000	42.202897
4.230000	42.202897
4.240000	42.202897
4.250000	42.202897
4.260000	42.202897
4.270000	42.202897
4.280000	42.202897
4.290000	42.202897
4.300000	42.202897
4.310000	42.202897
4.320000	42.202897
4.330000	42.202897
4.340000	42.202897
4.350000	42.202897
4.360000	42.202897
4.370000	42.202897
4.380000	42.202897
4.390000	42.202897
4.400000	42.202897
4.410000	42.202897
4.420000	42.202897
4.430000	42.202897
4.440000	42.202897
4.450000	42.202897
4.460000	42.202897
4.470000	42.202897
4.480000	42.202897
4.490000	42.202897
4.500000	43.919103
4.510000	43.919103
4.520000	43.919103
4.530000	43.919103
4.540000	43.919103
4.550000	43.919103
4.560000	43.919103
4.570000	43.919103
4.580000	43.919103
4.590000	43.919103
4.600000	43.919103
4.610000	43.919103
4.620000	43.919103
4.630000	43.919103
4.640000	43.919103
4.650000	43.919103
4.660000	43.919103
4.670000	43.919103
4.680000	43.919103
4.690000	43.919103
4.700000	43.919103
4.710000	43.919103
4.720000	43.919103
4.730000	43.919103
4.740000	43.919103
4.750000	43.919103
4.760000	43.919103
4.770000	43.919103
4.780000	43.919103
4.790000	43.919103
4.800000	43.919103
4.810000	43.919103
4.820000	43.919103
4.830000	43.919103
4.840000	43.919103
4.850000	43.919103
4.860000	43.919103
4.870000	43.919103
4.880000	43.919103
4.890000	43.919103
4.900000	43.919103
4.910000	43.919103
4.920000	43.919103
4.930000	43.919103
4.940000	43.919103
4.950000	43.919103
4.960000	43.919103
4.970000	43.919103
4.980000	43.919103
4.990000	43.919103
5.000000	45.129561
5.010000	45.129561
5.020000	45.129561
5.030000	45.129561
5.040000	45.129561
5.050000	45.129561
5.060000	45.129561
5.070000	45.129561
5.080000	45.129561
5.090000	45.129561
5.100000	45.129561
5.110000	45.129561
5.120000	45.129561
5.130000	45.129561
5.140000	45.129561
5.150000	45.129561
5.160000	45.129561
5.170000	45.129561
5.180000	45.129561
5.190000	45.129561
5.200000	45.129561
5.210000	45.129561
5.220000	45.129561
5.230000	45.129561
5.240000	45.129561
5.250000	45.129561
5.260000	45.129561
5.270000	45.129561
5.280000	45.129561
5.290000	45.129561
5.300000	45.129561
5.310000	45.129561
5.320000	45.129561
5.330000	45.129561
5.340000	45.129561
5.350000	45.129561
5.360000	45.129561
5.370000	45.129561
5.380000	45.129561
5.390000	45.129561
5.400000	45.129561
5.410000	45.129561
5.420000	45.129561
5.430000	45.129561
5.440000	45.129561
5.450000	45.129561
5.460000	45.129561
5.470000	45.129561
5.480000	45.129561
5.490000	45.129561
5.500000	45.943146
5.510000	45.943146
5.520000	45.943146
5.530000	45.943146
5.540000	45.943146
5.550000	45.943146
5.560000	45.943146
5.570000	45.943146
5.580000	45.943146
5.590000	45.943146
5.600000	45.943146
5.610000	45.943146
5.620000	45.943146
5.630000	45.943146
5.640000	45.943146
5.650000	45.943146
5.660000	45.943146
5.670000	45.943146
5.680000	45.943146
5.690000	45.943146
5.700000	45.943146
5.710000	45.943146
5.720000	45.943146
5.730000	45.943146
5.740000	45.943146
5.750000	45.943146
5.760000	45.943146
5.770000	45.943146
5.780000	45.943146
5.790000	45.943146
5.800000	45.943146
5.810000	45.943146
5.820000	45.943146
5.830000	45.943146
5.840000	45.943146
5.850000	45.943146
5.860000	45.943146
5.870000	45.943146
5.880000	45.943146
5.890000	45.943146
5.900000	45.943146
5.910000	45.943146
5.920000	45.943146
5.930000	45.943146
5.940000	45.943146
5.950000	45.943146
5.960000	45.943146
5.970000	45.943146
5.980000	45.943146
5.990000	45.943146
6.000000	46.441519
6.010000	46.441519
6.020000	46.441519
6.030000	46.441519
6.040000	46.441519
6.050000	46.441519
6.060000	46.441519
6.070000	46.441519
6.080000	46.441519
6.090000	46.441519
6.100000	46.441519
6.110000	46.441519
6.120000	46.441519
6.130000	46.441519
6.140000	46.441519
6.150000	46.441519
6.160000	46.441519
6.170000	46.441519
6.180000	46.441519
6.190000	46.441519
6.200000	46.441519
6.210000	46.441519
6.220000	46.441519
6.230000	46.441519
6.240000	46.441519
6.250000	46.441519
6.260000	46.441519
6.270000	46.441519
6.280000	46.441519
6.290000	46.441519
6.300000	46.441519
6.310000	46.441519
6.320000	46.441519
6.330000	46.441519
6.340000	46.441519
6.350000	46.441519
6.360000	46.441519
6.370000	46.441519
6.380000	46.441519
6.390000	46.441519
6.400000	46.441519
6.410000	46.441519
6.420000	46.441519
6.430000	46.441519
6.440000	46.441519
6.450000	46.441519
6.460000	46.441519
6.470000	46.441519
6.480000	46.441519
6.490000	46.441519
6.500000	46.721912
6.510000	46.721912
6.520000	46.721912
6.530000	46.721912
6.540000	46.721912
6.550000	46.721912
6.560000	46.721912
6.570000	46.721912
6.580000	46.721912
6.590000	46.721912
6.600000	46.721912
6.610000	46.721912
6.620000	46.721912
6.630000	46.721912
6.640000	46.721912
6.650000	46.721912
6.660000	46.721912
6.670000	46.721912
6.680000	46.721912
6.690000	46.721912
6.700000	46.721912
6.710000	46.721912
6.720000	46.721912
6.730000	46.721912
6.740000	46.721912
6.750000	46.721912
6.760000	46.721912
6.770000	46.721912
6.780000	46.721912
6.790000	46.721912
6.800000	46.721912
6.810000	46.721912
6.820000	46.721912
6.830000	46.721912
6.840000	46.721912
6.850000	46.721912
6.860000	46.721912
6.870000	46.721912
6.880000	46.721912
6.890000	46.721912
6.900000	46.721912
6.910000	46.721912
6.920000	46.721912
6.930000	46.721912
6.940000	46.721912
6.950000	46.721912
6.960000	46.721912
6.970000	46.721912
6.980000	46.721912
6.990000	46.721912
7.000000	46.831288
7.010000	46.831288
7.020000	46.831288
7.030000	46.831288
7.040000	46.831288
7.050000	46.831288
7.060000	46.831288
7.070000	46.831288
7.080000	46.831288
7.090000	46.831288
7.100000	46.831288
7.110000	46.831288
7.120000	46.831288
7.130000	46.831288
7.140000	46.831288
7.150000	46.831288
7.160000	46.831288
7.170000	46.831288
7.180000	46.831288
7.190000	46.831288
7.200000	46.831288
7.210000	46.831288
7.220000	46.831288
7.230000	46.831288
7.240000	46.831288
7.250000	46.831288
7.260000	46.831288
7.270000	46.831288
7.280000	46.831288
7.290000	46.831288
7.300000	46.831288
7.310000	46.831288
7.320000	46.831288
7.330000	46.831288
7.340000	46.831288
7.350000	46.831288
7.360000	46.831288
7.370000	46.831288
7.380000	46.831288
7.390000	46.831288
7.400000	46.831288
7.410000	46.831288
7.420000	46.831288
7.430000	46.831288
7.440000	46.831288
7.450000	46.831288
7.460000	46.831288
7.470000	46.831288
7.480000	46.831288
7.490000	46.831288
7.500000	46.800852
7.510000	46.800852
7.520000	46.800852
7.530000	46.800852
7.540000	46.800852
7.550000	46.800852
7.560000	46.800852
7.570000	46.800852
7.580000	46.800852
7.590000	46.800852
7.600000	46.800852
7.610000	46.800852
7.620000	46.800852
7.630000	46.800852
7.640000	46.800852
7.650000	46.800852
7.660000	46.800852
7.670000	46.800852
7.680000	46.800852
7.690000	46.800852
7.700000	46.800852
7.710000	46.800852
7.720000	46.800852
7.730000	46.800852
7.740000	46.800852
7.750000	46.800852
7.760000	46.800852
7.770000	46.800852
7.780000	46.800852
7.790000	46.800852
7.800000	46.800852
7.810000	46.800852
7.820000	46.800852
7.830000	46.800852
7.840000	46.800852
7.850000	46.800852
7.860000	46.800852
7.870000	46.800852
7.880000	46.800852
7.890000	46.800852
7.900000	46.800852
7.910000	46.800852
7.920000	46.800852
7.930000	46.800852
7.940000	46.800852
7.950000	46.800852
7.960000	46.800852
7.970000	46.800852
7.980000	46.800852
7.990000	46.800852
8.000000	46.668672
8.010000	46.668672
8.020000	46.668672
8.030000	46.668672
8.040000	46.668672
8.050000	46.668672
8.060000	46.668672
8.070000	46.668672
8.080000	46.668672
8.090000	46.668672
8.100000	46.668672
8.110000	46.668672
8.120000	46.668672
8.130000	46.668672
8.140000	46.668672
8.150000	46.668672
8.160000	46.668672
8.170000	46.668672
8.180000	46.668672
8.190000	46.668672
8.200000	46.668672
8.210000	46.668672
8.220000	46.668672
8.230000	46.668672
8.240000	46.668672
8.250000	46.668672
8.260000	46.668672
8.270000	46.668672
8.280000	46.668672
8.290000	46.668672
8.300000	46.668672
8.310000	46.668672
8.320000	46.668672
8.330000	46.668672
8.340000	46.668672
8.350000	46.668672
8.360000	46.668672
8.370000	46.668672
8.380000	46.668672
8.390000	46.668672
8.400000	46.668672
8.410000	46.668672
8.420000	46.668672
8.430000	46.668672
8.440000	46.668672
8.450000	46.668672
8.460000	46.668672
8.470000	46.668672
8.480000	46.668672
8.490000	46.668672
8.500000	46.462230
8.510000	46.462230
8.520000	46.462230
8.530000	46.462230
8.540000	46.462230
8.550000	46.462230
8.560000	46.462230
8.570000	46.462230
8.580000	46.462230
8.590000	46.462230
8.600000	46.462230
8.610000	46.462230
8.620000	46.462230
8.630000	46.462230
8.640000	46.462230
8.650000	46.462230
8.660000	46.462230
8.670000	46.462230
8.680000	46.462230
8.690000	46.462230
8.700000	46.462230
8.710000	46.462230
8.720000	46.462230
8.730000	46.462230
8.740000	46.462230
8.750000	46.462230
8.760000	46.462230
8.770000	46.462230
8.780000	46.462230
8.790000	46.462230
8.800000	46.462230
8.810000	46.462230
8.820000	46.462230
8.830000	46.462230
8.840000	46.462230
8.850000	46.462230
8.860000	46.462230
8.870000	46.462230
8.880000	46.462230
8.890000	46.462230
8.900000	46.462230
8.910000	46.462230
8.920000	46.462230
8.930000	46.462230
8.940000	46.462230
8.950000	46.462230
8.960000	46.462230
8.970000	46.462230
8.980000	46.462230
8.990000	46.462230
9.000000	46.205414
9.010000	46.205414
9.020000	46.205414
9.030000	46.205414
9.040000	46.205414
9.050000	46.205414
9.060000	46.205414
9.070000	46.205414
9.080000	46.205414
9.090000	46.205414
9.100000	46.205414
9.110000	46.205414
9.120000	46.205414
9.130000	46.205414
9.140000	46.205414
9.150000	46.205414
9.160000	46.205414
9.170000	46.205414
9.180000	46.205414
9.190000	46.205414
9.200000	46.205414
9.210000	46.205414
9.220000	46.205414
9.230000	46.205414
9.240000	46.205414
9.250000	46.205414
9.260000	46.205414
9.270000	46.205414
9.280000	46.205414
9.290000	46.205414
9.300000	46.205414
9.310000	46.205414
9.320000	46.205414
9.330000	46.205414
9.340000	46.205414
9.350000	46.205414
9.360000	46.205414
9.370000	46.205414
9.380000	46.205414
9.390000	46.205414
9.400000	46.205414
9.410000	46.205414
9.420000	46.205414
9.430000	46.205414
9.440000	46.205414
9.450000	46.205414
9.460000	46.205414
9.470000	46.205414
9.480000	46.205414
9.490000	46.205414
9.500000	45.904389
9.510000	45.904389
9.520000	45.904389
9.530000	45.904389
9.540000	45.904389
9.550000	45.904389
9.560000	45.904389
9.570000	45.904389
9.580000	45.904389
9.590000	45.904389
9.600000	45.904389
9.610000	45.904389
9.620000	45.904389
9.630000	45.904389
9.640000	45.904389
9.650000	45.904389
9.660000	45.904389
9.670000	45.904389
9.680000	45.904389
9.690000	45.904389
9.700000	45.904389
9.710000	45.904389
9.720000	45.904389
9.730000	45.904389
9.740000	45.904389
9.750000	45.904389
9.760000	45.904389
