LabVIEW Measurement	
Writer_Version	2
Reader_Version	2
Separator	Tab
Decimal_Separator	.
Multi_Headings	No
X_Columns	One
Time_Pref	Absolute
Operator	biomech-dyno
Date	2023/04/27
Time	17:41:55.9338632999999876419
***End_of_Header***	
	
Channels	1	
Samples	10	
Date	2023/04/27	
Time	18:58:03.1706550999998650324	
X_Dimension	Time	
X0	0.0000000000000000E+0	
Delta_X	0.010000	
***End_of_Header***		
X_Value	Untitled	Comment
0.000000	25.092696
0.010000	25.092696
0.020000	25.092696
0.030000	25.092696
0.040000	25.092696
0.050000	25.092696
0.060000	25.092696
0.070000	25.092696
0.080000	25.092696
0.090000	25.092696
0.100000	25.092696
0.110000	25.092696
0.120000	25.092696
0.130000	25.092696
0.140000	25.092696
0.150000	25.092696
0.160000	25.092696
0.170000	25.092696
0.180000	25.092696
0.190000	25.092696
0.200000	25.092696
0.210000	25.092696
0.220000	25.092696
0.230000	25.092696
0.240000	25.092696
0.250000	25.092696
0.260000	25.092696
0.270000	25.092696
0.280000	25.092696
0.290000	25.092696
0.300000	25.092696
0.310000	25.092696
0.320000	25.092696
0.330000	25.092696
0.340000	25.092696
0.350000	25.092696
0.360000	25.092696
0.370000	25.092696
0.380000	25.092696
0.390000	25.092696
0.400000	25.092696
0.410000	25.092696
0.420000	25.092696
0.430000	25.092696
0.440000	25.092696
0.450000	25.092696
0.460000	25.092696
0.470000	25.092696
0.480000	25.092696
0.490000	25.092696
0.500000	25.131072
0.510000	25.131072
0.520000	25.131072
0.530000	25.131072
0.540000	25.131072
0.550000	25.131072
0.560000	25.131072
0.570000	25.131072
0.580000	25.131072
0.590000	25.131072
0.600000	25.131072
0.610000	25.131072
0.620000	25.131072
0.630000	25.131072
0.640000	25.131072
0.650000	25.131072
0.660000	25.131072
0.670000	25.131072
0.680000	25.131072
0.690000	25.131072
0.700000	25.131072
0.710000	25.131072
0.720000	25.131072
0.730000	25.131072
0.740000	25.131072
0.750000	25.131072
0.760000	25.131072
0.770000	25.131072
0.780000	25.131072
0.790000	25.131072
0.800000	25.131072
0.810000	25.131072
0.820000	25.131072
0.830000	25.131072
0.840000	25.131072
0.850000	25.131072
0.860000	25.131072
0.870000	25.131072
0.880000	25.131072
0.890000	25.131072
0.900000	25.131072
0.910000	25.131072
0.920000	25.131072
0.930000	25.131072
0.940000	25.131072
0.950000	25.131072
0.960000	25.131072
0.970000	25.131072
0.980000	25.131072
0.990000	25.131072
1.000000	25.589477
1.010000	25.589477
1.020000	25.589477
1.030000	25.589477
1.040000	25.589477
1.050000	25.589477
1.060000	25.589477
1.070000	25.589477
1.080000	25.589477
1.090000	25.589477
1.100000	25.589477
1.110000	25.589477
1.120000	25.589477
1.130000	25.589477
1.140000	25.589477
1.150000	25.589477
1.160000	25.589477
1.170000	25.589477
1.180000	25.589477
1.190000	25.589477
1.200000	25.589477
1.210000	25.589477
1.220000	25.589477
1.230000	25.589477
1.240000	25.589477
1.250000	25.589477
1.260000	25.589477
1.270000	25.589477
1.280000	25.589477
1.290000	25.589477
1.300000	25.589477
1.310000	25.589477
1.320000	25.589477
1.330000	25.589477
1.340000	25.589477
1.350000	25.589477
1.360000	25.589477
1.370000	25.589477
1.380000	25.589477
1.390000	25.589477
1.400000	25.589477
1.410000	25.589477
1.420000	25.589477
1.430000	25.589477
1.440000	25.589477
1.450000	25.589477
1.460000	25.589477
1.470000	25.589477
1.480000	25.589477
1.490000	25.589477
1.500000	26.672590
1.510000	26.672590
1.520000	26.672590
1.530000	26.672590
1.540000	26.672590
1.550000	26.672590
1.560000	26.672590
1.570000	26.672590
1.580000	26.672590
1.590000	26.672590
1.600000	26.672590
1.610000	26.672590
1.620000	26.672590
1.630000	26.672590
1.640000	26.672590
1.650000	26.672590
1.660000	26.672590
1.670000	26.672590
1.680000	26.672590
1.690000	26.672590
1.700000	26.672590
1.710000	26.672590
1.720000	26.672590
1.730000	26.672590
1.740000	26.672590
1.750000	26.672590
1.760000	26.672590
1.770000	26.672590
1.780000	26.672590
1.790000	26.672590
1.800000	26.672590
1.810000	26.672590
1.820000	26.672590
1.830000	26.672590
1.840000	26.672590
1.850000	26.672590
1.860000	26.672590
1.870000	26.672590
1.880000	26.672590
1.890000	26.672590
1.900000	26.672590
1.910000	26.672590
1.920000	26.672590
1.930000	26.672590
1.940000	26.672590
1.950000	26.672590
1.960000	26.672590
1.970000	26.672590
1.980000	26.672590
1.990000	26.672590
2.000000	28.285295
2.010000	28.285295
2.020000	28.285295
2.030000	28.285295
2.040000	28.285295
2.050000	28.285295
2.060000	28.285295
2.070000	28.285295
2.080000	28.285295
2.090000	28.285295
2.100000	28.285295
2.110000	28.285295
2.120000	28.285295
2.130000	28.285295
2.140000	28.285295
2.150000	28.285295
2.160000	28.285295
2.170000	28.285295
2.180000	28.285295
2.190000	28.285295
2.200000	28.285295
2.210000	28.285295
2.220000	28.285295
2.230000	28.285295
2.240000	28.285295
2.250000	28.285295
2.260000	28.285295
2.270000	28.285295
2.280000	28.285295
2.290000	28.285295
2.300000	28.285295
2.310000	28.285295
2.320000	28.285295
2.330000	28.285295
2.340000	28.285295
2.350000	28.285295
2.360000	28.285295
2.370000	28.285295
2.380000	28.285295
2.390000	28.285295
2.400000	28.285295
2.410000	28.285295
2.420000	28.285295
2.430000	28.285295
2.440000	28.285295
2.450000	28.285295
2.460000	28.285295
2.470000	28.285295
2.480000	28.285295
2.490000	28.285295
2.500000	30.287702
2.510000	30.287702
2.520000	30.287702
2.530000	30.287702
2.540000	30.287702
2.550000	30.287702
2.560000	30.287702
2.570000	30.287702
2.580000	30.287702
2.590000	30.287702
2.600000	30.287702
2.610000	30.287702
2.620000	30.287702
2.630000	30.287702
2.640000	30.287702
2.650000	30.287702
2.660000	30.287702
2.670000	30.287702
2.680000	30.287702
2.690000	30.287702
2.700000	30.287702
2.710000	30.287702
2.720000	30.287702
2.730000	30.287702
2.740000	30.287702
2.750000	30.287702
2.760000	30.287702
2.770000	30.287702
2.780000	30.287702
2.790000	30.287702
2.800000	30.287702
2.810000	30.287702
2.820000	30.287702
2.830000	30.287702
2.840000	30.287702
2.850000	30.287702
2.860000	30.287702
2.870000	30.287702
2.880000	30.287702
2.890000	30.287702
2.900000	30.287702
2.910000	30.287702
2.920000	30.287702
2.930000	30.287702
2.940000	30.287702
2.950000	30.287702
2.960000	30.287702
2.970000	30.287702
2.980000	30.287702
2.990000	30.287702
3.000000	32.450124
3.010000	32.450124
3.020000	32.450124
3.030000	32.450124
3.040000	32.450124
3.050000	32.450124
3.060000	32.450124
3.070000	32.450124
3.080000	32.450124
3.090000	32.450124
3.100000	32.450124
3.110000	32.450124
3.120000	32.450124
3.130000	32.450124
3.140000	32.450124
3.150000	32.450124
3.160000	32.450124
3.170000	32.450124
3.180000	32.450124
3.190000	32.450124
3.200000	32.450124
3.210000	32.450124
3.220000	32.450124
3.230000	32.450124
3.240000	32.450124
3.250000	32.450124
3.260000	32.450124
3.270000	32.450124
3.280000	32.450124
3.290000	32.450124
3.300000	32.450124
3.310000	32.450124
3.320000	32.450124
3.330000	32.450124
3.340000	32.450124
3.350000	32.450124
3.360000	32.450124
3.370000	32.450124
3.380000	32.450124
3.390000	32.450124
3.400000	32.450124
3.410000	32.450124
3.420000	32.450124
3.430000	32.450124
3.440000	32.450124
3.450000	32.450124
3.460000	32.450124
3.470000	32.450124
3.480000	32.450124
3.490000	32.450124
3.500000	34.244952
3.510000	34.244952
3.520000	34.244952
3.530000	34.244952
3.540000	34.244952
3.550000	34.244952
3.560000	34.244952
3.570000	34.244952
3.580000	34.244952
3.590000	34.244952
3.600000	34.244952
3.610000	34.244952
3.620000	34.244952
3.630000	34.244952
3.640000	34.244952
3.650000	34.244952
3.660000	34.244952
3.670000	34.244952
3.680000	34.244952
3.690000	34.244952
3.700000	34.244952
3.710000	34.244952
3.720000	34.244952
3.730000	34.244952
3.740000	34.244952
3.750000	34.244952
3.760000	34.244952
3.770000	34.244952
3.780000	34.244952
3.790000	34.244952
3.800000	34.244952
3.810000	34.244952
3.820000	34.244952
3.830000	34.244952
3.840000	34.244952
3.850000	34.244952
3.860000	34.244952
3.870000	34.244952
3.880000	34.244952
3.890000	34.244952
3.900000	34.244952
3.910000	34.244952
3.920000	34.244952
3.930000	34.244952
3.940000	34.244952
3.950000	34.244952
3.960000	34.244952
3.970000	34.244952
3.980000	34.244952
3.990000	34.244952
4.000000	35.586997
4.010000	35.586997
4.020000	35.586997
4.030000	35.586997
4.040000	35.586997
4.050000	35.586997
4.060000	35.586997
4.070000	35.586997
4.080000	35.586997
4.090000	35.586997
4.100000	35.586997
4.110000	35.586997
4.120000	35.586997
4.130000	35.586997
4.140000	35.586997
4.150000	35.586997
4.160000	35.586997
4.170000	35.586997
4.180000	35.586997
4.190000	35.586997
4.200000	35.586997
4.210000	35.586997
4.220000	35.586997
4.230000	35.586997
4.240000	35.586997
4.250000	35.586997
4.260000	35.586997
4.270000	35.586997
4.280000	35.586997
4.290000	35.586997
4.300000	35.586997
4.310000	35.586997
4.320000	35.586997
4.330000	35.586997
4.340000	35.586997
4.350000	35.586997
4.360000	35.586997
4.370000	35.586997
4.380000	35.586997
4.390000	35.586997
4.400000	35.586997
4.410000	35.586997
4.420000	35.586997
4.430000	35.586997
4.440000	35.586997
4.450000	35.586997
4.460000	35.586997
4.470000	35.586997
4.480000	35.586997
4.490000	35.586997
4.500000	36.541314
4.510000	36.541314
4.520000	36.541314
4.530000	36.541314
4.540000	36.541314
4.550000	36.541314
4.560000	36.541314
4.570000	36.541314
4.580000	36.541314
4.590000	36.541314
4.600000	36.541314
4.610000	36.541314
4.620000	36.541314
4.630000	36.541314
4.640000	36.541314
4.650000	36.541314
4.660000	36.541314
4.670000	36.541314
4.680000	36.541314
4.690000	36.541314
4.700000	36.541314
4.710000	36.541314
4.720000	36.541314
4.730000	36.541314
4.740000	36.541314
4.750000	36.541314
4.760000	36.541314
4.770000	36.541314
4.780000	36.541314
4.790000	36.541314
4.800000	36.541314
4.810000	36.541314
4.820000	36.541314
4.830000	36.541314
4.840000	36.541314
4.850000	36.541314
4.860000	36.541314
4.870000	36.541314
4.880000	36.541314
4.890000	36.541314
4.900000	36.541314
4.910000	36.541314
4.920000	36.541314
4.930000	36.541314
4.940000	36.541314
4.950000	36.541314
4.960000	36.541314
4.970000	36.541314
4.980000	36.541314
4.990000	36.541314
5.000000	37.198358
5.010000	37.198358
5.020000	37.198358
5.030000	37.198358
5.040000	37.198358
5.050000	37.198358
5.060000	37.198358
5.070000	37.198358
5.080000	37.198358
5.090000	37.198358
5.100000	37.198358
5.110000	37.198358
5.120000	37.198358
5.130000	37.198358
5.140000	37.198358
5.150000	37.198358
5.160000	37.198358
5.170000	37.198358
5.180000	37.198358
5.190000	37.198358
5.200000	37.198358
5.210000	37.198358
5.220000	37.198358
5.230000	37.198358
5.240000	37.198358
5.250000	37.198358
5.260000	37.198358
5.270000	37.198358
5.280000	37.198358
5.290000	37.198358
5.300000	37.198358
5.310000	37.198358
5.320000	37.198358
5.330000	37.198358
5.340000	37.198358
5.350000	37.198358
5.360000	37.198358
5.370000	37.198358
5.380000	37.198358
5.390000	37.198358
5.400000	37.198358
5.410000	37.198358
5.420000	37.198358
5.430000	37.198358
5.440000	37.198358
5.450000	37.198358
5.460000	37.198358
5.470000	37.198358
5.480000	37.198358
5.490000	37.198358
5.500000	37.636476
5.510000	37.636476
5.520000	37.636476
5.530000	37.636476
5.540000	37.636476
5.550000	37.636476
5.560000	37.636476
5.570000	37.636476
5.580000	37.636476
5.590000	37.636476
5.600000	37.636476
5.610000	37.636476
5.620000	37.636476
5.630000	37.636476
5.640000	37.636476
5.650000	37.636476
5.660000	37.636476
5.670000	37.636476
5.680000	37.636476
5.690000	37.636476
5.700000	37.636476
5.710000	37.636476
5.720000	37.636476
5.730000	37.636476
5.740000	37.636476
5.750000	37.636476
5.760000	37.636476
5.770000	37.636476
5.780000	37.636476
5.790000	37.636476
5.800000	37.636476
5.810000	37.636476
5.820000	37.636476
5.830000	37.636476
5.840000	37.636476
5.850000	37.636476
5.860000	37.636476
5.870000	37.636476
5.880000	37.636476
5.890000	37.636476
5.900000	37.636476
5.910000	37.636476
5.920000	37.636476
5.930000	37.636476
5.940000	37.636476
5.950000	37.636476
5.960000	37.636476
5.970000	37.636476
5.980000	37.636476
5.990000	37.636476
6.000000	37.911469
6.010000	37.911469
6.020000	37.911469
6.030000	37.911469
6.040000	37.911469
6.050000	37.911469
6.060000	37.911469
6.070000	37.911469
6.080000	37.911469
6.090000	37.911469
6.100000	37.911469
6.110000	37.911469
6.120000	37.911469
6.130000	37.911469
6.140000	37.911469
6.150000	37.911469
6.160000	37.911469
6.170000	37.911469
6.180000	37.911469
6.190000	37.911469
6.200000	37.911469
6.210000	37.911469
6.220000	37.911469
6.230000	37.911469
6.240000	37.911469
6.250000	37.911469
6.260000	37.911469
6.270000	37.911469
6.280000	37.911469
6.290000	37.911469
6.300000	37.911469
6.310000	37.911469
6.320000	37.911469
6.330000	37.911469
6.340000	37.911469
6.350000	37.911469
6.360000	37.911469
6.370000	37.911469
6.380000	37.911469
6.390000	37.911469
6.400000	37.911469
6.410000	37.911469
6.420000	37.911469
6.430000	37.911469
6.440000	37.911469
6.450000	37.911469
6.460000	37.911469
6.470000	37.911469
6.480000	37.911469
6.490000	37.911469
6.500000	38.050575
6.510000	38.050575
6.520000	38.050575
6.530000	38.050575
6.540000	38.050575
6.550000	38.050575
6.560000	38.050575
6.570000	38.050575
6.580000	38.050575
6.590000	38.050575
6.600000	38.050575
6.610000	38.050575
6.620000	38.050575
6.630000	38.050575
6.640000	38.050575
6.650000	38.050575
6.660000	38.050575
6.670000	38.050575
6.680000	38.050575
6.690000	38.050575
6.700000	38.050575
6.710000	38.050575
6.720000	38.050575
6.730000	38.050575
6.740000	38.050575
6.750000	38.050575
6.760000	38.050575
6.770000	38.050575
6.780000	38.050575
6.790000	38.050575
6.800000	38.050575
6.810000	38.050575
6.820000	38.050575
6.830000	38.050575
6.840000	38.050575
6.850000	38.050575
6.860000	38.050575
6.870000	38.050575
6.880000	38.050575
6.890000	38.050575
6.900000	38.050575
6.910000	38.050575
6.920000	38.050575
6.930000	38.050575
6.940000	38.050575
6.950000	38.050575
6.960000	38.050575
6.970000	38.050575
6.980000	38.050575
6.990000	38.050575
7.000000	38.081369
7.010000	38.081369
7.020000	38.081369
7.030000	38.081369
7.040000	38.081369
7.050000	38.081369
7.060000	38.081369
7.070000	38.081369
7.080000	38.081369
7.090000	38.081369
7.100000	38.081369
7.110000	38.081369
7.120000	38.081369
7.130000	38.081369
7.140000	38.081369
7.150000	38.081369
7.160000	38.081369
7.170000	38.081369
7.180000	38.081369
7.190000	38.081369
7.200000	38.081369
7.210000	38.081369
7.220000	38.081369
7.230000	38.081369
7.240000	38.081369
7.250000	38.081369
7.260000	38.081369
7.270000	38.081369
7.280000	38.081369
7.290000	38.081369
7.300000	38.081369
7.310000	38.081369
7.320000	38.081369
7.330000	38.081369
7.340000	38.081369
7.350000	38.081369
7.360000	38.081369
7.370000	38.081369
7.380000	38.081369
7.390000	38.081369
7.400000	38.081369
7.410000	38.081369
7.420000	38.081369
7.430000	38.081369
7.440000	38.081369
7.450000	38.081369
7.460000	38.081369
7.470000	38.081369
7.480000	38.081369
7.490000	38.081369
7.500000	38.037442
7.510000	38.037442
7.520000	38.037442
7.530000	38.037442
7.540000	38.037442
7.550000	38.037442
7.560000	38.037442
7.570000	38.037442
7.580000	38.037442
7.590000	38.037442
7.600000	38.037442
7.610000	38.037442
7.620000	38.037442
7.630000	38.037442
7.640000	38.037442
7.650000	38.037442
7.660000	38.037442
7.670000	38.037442
7.680000	38.037442
7.690000	38.037442
7.700000	38.037442
7.710000	38.037442
7.720000	38.037442
7.730000	38.037442
7.740000	38.037442
7.750000	38.037442
7.760000	38.037442
7.770000	38.037442
7.780000	38.037442
7.790000	38.037442
7.800000	38.037442
7.810000	38.037442
7.820000	38.037442
7.830000	38.037442
7.840000	38.037442
7.850000	38.037442
7.860000	38.037442
7.870000	38.037442
7.880000	38.037442
7.890000	38.037442
7.900000	38.037442
7.910000	38.037442
7.920000	38.037442
7.930000	38.037442
7.940000	38.037442
7.950000	38.037442
7.960000	38.037442
7.970000	38.037442
7.980000	38.037442
7.990000	38.037442
8.000000	37.940081
8.010000	37.940081
8.020000	37.940081
8.030000	37.940081
8.040000	37.940081
8.050000	37.940081
8.060000	37.940081
8.070000	37.940081
8.080000	37.940081
8.090000	37.940081
8.100000	37.940081
8.110000	37.940081
8.120000	37.940081
8.130000	37.940081
8.140000	37.940081
8.150000	37.940081
8.160000	37.940081
8.170000	37.940081
8.180000	37.940081
8.190000	37.940081
8.200000	37.940081
8.210000	37.940081
8.220000	37.940081
8.230000	37.940081
8.240000	37.940081
8.250000	37.940081
8.260000	37.940081
8.270000	37.940081
8.280000	37.940081
8.290000	37.940081
8.300000	37.940081
8.310000	37.940081
8.320000	37.940081
8.330000	37.940081
8.340000	37.940081
8.350000	37.940081
8.360000	37.940081
8.370000	37.940081
8.380000	37.940081
8.390000	37.940081
8.400000	37.940081
8.410000	37.940081
8.420000	37.940081
8.430000	37.940081
8.440000	37.940081
8.450000	37.940081
8.460000	37.940081
8.470000	37.940081
8.480000	37.940081
8.490000	37.940081
8.500000	37.797619
8.510000	37.797619
8.520000	37.797619
8.530000	37.797619
8.540000	37.797619
8.550000	37.797619
8.560000	37.797619
8.570000	37.797619
8.580000	37.797619
8.590000	37.797619
8.600000	37.797619
8.610000	37.797619
8.620000	37.797619
8.630000	37.797619
8.640000	37.797619
8.650000	37.797619
8.660000	37.797619
8.670000	37.797619
8.680000	37.797619
8.690000	37.797619
8.700000	37.797619
8.710000	37.797619
8.720000	37.797619
8.730000	37.797619
8.740000	37.797619
8.750000	37.797619
8.760000	37.797619
8.770000	37.797619
8.780000	37.797619
8.790000	37.797619
8.800000	37.797619
8.810000	37.797619
8.820000	37.797619
8.830000	37.797619
8.840000	37.797619
8.850000	37.797619
8.860000	37.797619
8.870000	37.797619
8.880000	37.797619
8.890000	37.797619
8.900000	37.797619
8.910000	37.797619
8.920000	37.797619
8.930000	37.797619
8.940000	37.797619
8.950000	37.797619
8.960000	37.797619
8.970000	37.797619
8.980000	37.797619
8.990000	37.797619
9.000000	37.616189
9.010000	37.616189
9.020000	37.616189
9.030000	37.616189
9.040000	37.616189
9.050000	37.616189
9.060000	37.616189
9.070000	37.616189
9.080000	37.616189
9.090000	37.616189
9.100000	37.616189
9.110000	37.616189
9.120000	37.616189
9.130000	37.616189
9.140000	37.616189
9.150000	37.616189
9.160000	37.616189
9.170000	37.616189
9.180000	37.616189
9.190000	37.616189
9.200000	37.616189
9.210000	37.616189
9.220000	37.616189
9.230000	37.616189
9.240000	37.616189
9.250000	37.616189
9.260000	37.616189
9.270000	37.616189
9.280000	37.616189
9.290000	37.616189
9.300000	37.616189
9.310000	37.616189
9.320000	37.616189
9.330000	37.616189
9.340000	37.616189
9.350000	37.616189
9.360000	37.616189
9.370000	37.616189
9.380000	37.616189
9.390000	37.616189
9.400000	37.616189
9.410000	37.616189
9.420000	37.616189
9.430000	37.616189
9.440000	37.616189
9.450000	37.616189
9.460000	37.616189
9.470000	37.616189
9.480000	37.616189
9.490000	37.616189
9.500000	37.415910
9.510000	37.415910
9.520000	37.415910
9.530000	37.415910
9.540000	37.415910
9.550000	37.415910
9.560000	37.415910
9.570000	37.415910
9.580000	37.415910
9.590000	37.415910
9.600000	37.415910
9.610000	37.415910
9.620000	37.415910
9.630000	37.415910
9.640000	37.415910
9.650000	37.415910
9.660000	37.415910
9.670000	37.415910
9.680000	37.415910
9.690000	37.415910
9.700000	37.415910
9.710000	37.415910
9.720000	37.415910
9.730000	37.415910
9.740000	37.415910
9.750000	37.415910
9.760000	37.415910
