LabVIEW Measurement	
Writer_Version	2
Reader_Version	2
Separator	Tab
Decimal_Separator	.
Multi_Headings	No
X_Columns	One
Time_Pref	Absolute
Operator	biomech-dyno
Date	2023/04/27
Time	17:41:55.9338632999999876419
***End_of_Header***	
	
Channels	1	
Samples	10	
Date	2023/04/27	
Time	19:18:58.7150497999995831481	
X_Dimension	Time	
X0	0.0000000000000000E+0	
Delta_X	0.010000	
***End_of_Header***		
X_Value	Untitled	Comment
0.000000	25.095528
0.010000	25.095528
0.020000	25.095528
0.030000	25.095528
0.040000	25.095528
0.050000	25.095528
0.060000	25.095528
0.070000	25.095528
0.080000	25.095528
0.090000	25.095528
0.100000	25.095528
0.110000	25.095528
0.120000	25.095528
0.130000	25.095528
0.140000	25.095528
0.150000	25.095528
0.160000	25.095528
0.170000	25.095528
0.180000	25.095528
0.190000	25.095528
0.200000	25.095528
0.210000	25.095528
0.220000	25.095528
0.230000	25.095528
0.240000	25.095528
0.250000	25.095528
0.260000	25.095528
0.270000	25.095528
0.280000	25.095528
0.290000	25.095528
0.300000	25.095528
0.310000	25.095528
0.320000	25.095528
0.330000	25.095528
0.340000	25.095528
0.350000	25.095528
0.360000	25.095528
0.370000	25.095528
0.380000	25.095528
0.390000	25.095528
0.400000	25.095528
0.410000	25.095528
0.420000	25.095528
0.430000	25.095528
0.440000	25.095528
0.450000	25.095528
0.460000	25.095528
0.470000	25.095528
0.480000	25.095528
0.490000	25.095528
0.500000	25.135915
0.510000	25.135915
0.520000	25.135915
0.530000	25.135915
0.540000	25.135915
0.550000	25.135915
0.560000	25.135915
0.570000	25.135915
0.580000	25.135915
0.590000	25.135915
0.600000	25.135915
0.610000	25.135915
0.620000	25.135915
0.630000	25.135915
0.640000	25.135915
0.650000	25.135915
0.660000	25.135915
0.670000	25.135915
0.680000	25.135915
0.690000	25.135915
0.700000	25.135915
0.710000	25.135915
0.720000	25.135915
0.730000	25.135915
0.740000	25.135915
0.750000	25.135915
0.760000	25.135915
0.770000	25.135915
0.780000	25.135915
0.790000	25.135915
0.800000	25.135915
0.810000	25.135915
0.820000	25.135915
0.830000	25.135915
0.840000	25.135915
0.850000	25.135915
0.860000	25.135915
0.870000	25.135915
0.880000	25.135915
0.890000	25.135915
0.900000	25.135915
0.910000	25.135915
0.920000	25.135915
0.930000	25.135915
0.940000	25.135915
0.950000	25.135915
0.960000	25.135915
0.970000	25.135915
0.980000	25.135915
0.990000	25.135915
1.000000	25.612432
1.010000	25.612432
1.020000	25.612432
1.030000	25.612432
1.040000	25.612432
1.050000	25.612432
1.060000	25.612432
1.070000	25.612432
1.080000	25.612432
1.090000	25.612432
1.100000	25.612432
1.110000	25.612432
1.120000	25.612432
1.130000	25.612432
1.140000	25.612432
1.150000	25.612432
1.160000	25.612432
1.170000	25.612432
1.180000	25.612432
1.190000	25.612432
1.200000	25.612432
1.210000	25.612432
1.220000	25.612432
1.230000	25.612432
1.240000	25.612432
1.250000	25.612432
1.260000	25.612432
1.270000	25.612432
1.280000	25.612432
1.290000	25.612432
1.300000	25.612432
1.310000	25.612432
1.320000	25.612432
1.330000	25.612432
1.340000	25.612432
1.350000	25.612432
1.360000	25.612432
1.370000	25.612432
1.380000	25.612432
1.390000	25.612432
1.400000	25.612432
1.410000	25.612432
1.420000	25.612432
1.430000	25.612432
1.440000	25.612432
1.450000	25.612432
1.460000	25.612432
1.470000	25.612432
1.480000	25.612432
1.490000	25.612432
1.500000	26.744795
1.510000	26.744795
1.520000	26.744795
1.530000	26.744795
1.540000	26.744795
1.550000	26.744795
1.560000	26.744795
1.570000	26.744795
1.580000	26.744795
1.590000	26.744795
1.600000	26.744795
1.610000	26.744795
1.620000	26.744795
1.630000	26.744795
1.640000	26.744795
1.650000	26.744795
1.660000	26.744795
1.670000	26.744795
1.680000	26.744795
1.690000	26.744795
1.700000	26.744795
1.710000	26.744795
1.720000	26.744795
1.730000	26.744795
1.740000	26.744795
1.750000	26.744795
1.760000	26.744795
1.770000	26.744795
1.780000	26.744795
1.790000	26.744795
1.800000	26.744795
1.810000	26.744795
1.820000	26.744795
1.830000	26.744795
1.840000	26.744795
1.850000	26.744795
1.860000	26.744795
1.870000	26.744795
1.880000	26.744795
1.890000	26.744795
1.900000	26.744795
1.910000	26.744795
1.920000	26.744795
1.930000	26.744795
1.940000	26.744795
1.950000	26.744795
1.960000	26.744795
1.970000	26.744795
1.980000	26.744795
1.990000	26.744795
2.000000	28.419351
2.010000	28.419351
2.020000	28.419351
2.030000	28.419351
2.040000	28.419351
2.050000	28.419351
2.060000	28.419351
2.070000	28.419351
2.080000	28.419351
2.090000	28.419351
2.100000	28.419351
2.110000	28.419351
2.120000	28.419351
2.130000	28.419351
2.140000	28.419351
2.150000	28.419351
2.160000	28.419351
2.170000	28.419351
2.180000	28.419351
2.190000	28.419351
2.200000	28.419351
2.210000	28.419351
2.220000	28.419351
2.230000	28.419351
2.240000	28.419351
2.250000	28.419351
2.260000	28.419351
2.270000	28.419351
2.280000	28.419351
2.290000	28.419351
2.300000	28.419351
2.310000	28.419351
2.320000	28.419351
2.330000	28.419351
2.340000	28.419351
2.350000	28.419351
2.360000	28.419351
2.370000	28.419351
2.380000	28.419351
2.390000	28.419351
2.400000	28.419351
2.410000	28.419351
2.420000	28.419351
2.430000	28.419351
2.440000	28.419351
2.450000	28.419351
2.460000	28.419351
2.470000	28.419351
2.480000	28.419351
2.490000	28.419351
2.500000	30.483986
2.510000	30.483986
2.520000	30.483986
2.530000	30.483986
2.540000	30.483986
2.550000	30.483986
2.560000	30.483986
2.570000	30.483986
2.580000	30.483986
2.590000	30.483986
2.600000	30.483986
2.610000	30.483986
2.620000	30.483986
2.630000	30.483986
2.640000	30.483986
2.650000	30.483986
2.660000	30.483986
2.670000	30.483986
2.680000	30.483986
2.690000	30.483986
2.700000	30.483986
2.710000	30.483986
2.720000	30.483986
2.730000	30.483986
2.740000	30.483986
2.750000	30.483986
2.760000	30.483986
2.770000	30.483986
2.780000	30.483986
2.790000	30.483986
2.800000	30.483986
2.810000	30.483986
2.820000	30.483986
2.830000	30.483986
2.840000	30.483986
2.850000	30.483986
2.860000	30.483986
2.870000	30.483986
2.880000	30.483986
2.890000	30.483986
2.900000	30.483986
2.910000	30.483986
2.920000	30.483986
2.930000	30.483986
2.940000	30.483986
2.950000	30.483986
2.960000	30.483986
2.970000	30.483986
2.980000	30.483986
2.990000	30.483986
3.000000	32.772092
3.010000	32.772092
3.020000	32.772092
3.030000	32.772092
3.040000	32.772092
3.050000	32.772092
3.060000	32.772092
3.070000	32.772092
3.080000	32.772092
3.090000	32.772092
3.100000	32.772092
3.110000	32.772092
3.120000	32.772092
3.130000	32.772092
3.140000	32.772092
3.150000	32.772092
3.160000	32.772092
3.170000	32.772092
3.180000	32.772092
3.190000	32.772092
3.200000	32.772092
3.210000	32.772092
3.220000	32.772092
3.230000	32.772092
3.240000	32.772092
3.250000	32.772092
3.260000	32.772092
3.270000	32.772092
3.280000	32.772092
3.290000	32.772092
3.300000	32.772092
3.310000	32.772092
3.320000	32.772092
3.330000	32.772092
3.340000	32.772092
3.350000	32.772092
3.360000	32.772092
3.370000	32.772092
3.380000	32.772092
3.390000	32.772092
3.400000	32.772092
3.410000	32.772092
3.420000	32.772092
3.430000	32.772092
3.440000	32.772092
3.450000	32.772092
3.460000	32.772092
3.470000	32.772092
3.480000	32.772092
3.490000	32.772092
3.500000	34.782458
3.510000	34.782458
3.520000	34.782458
3.530000	34.782458
3.540000	34.782458
3.550000	34.782458
3.560000	34.782458
3.570000	34.782458
3.580000	34.782458
3.590000	34.782458
3.600000	34.782458
3.610000	34.782458
3.620000	34.782458
3.630000	34.782458
3.640000	34.782458
3.650000	34.782458
3.660000	34.782458
3.670000	34.782458
3.680000	34.782458
3.690000	34.782458
3.700000	34.782458
3.710000	34.782458
3.720000	34.782458
3.730000	34.782458
3.740000	34.782458
3.750000	34.782458
3.760000	34.782458
3.770000	34.782458
3.780000	34.782458
3.790000	34.782458
3.800000	34.782458
3.810000	34.782458
3.820000	34.782458
3.830000	34.782458
3.840000	34.782458
3.850000	34.782458
3.860000	34.782458
3.870000	34.782458
3.880000	34.782458
3.890000	34.782458
3.900000	34.782458
3.910000	34.782458
3.920000	34.782458
3.930000	34.782458
3.940000	34.782458
3.950000	34.782458
3.960000	34.782458
3.970000	34.782458
3.980000	34.782458
3.990000	34.782458
4.000000	36.289097
4.010000	36.289097
4.020000	36.289097
4.030000	36.289097
4.040000	36.289097
4.050000	36.289097
4.060000	36.289097
4.070000	36.289097
4.080000	36.289097
4.090000	36.289097
4.100000	36.289097
4.110000	36.289097
4.120000	36.289097
4.130000	36.289097
4.140000	36.289097
4.150000	36.289097
4.160000	36.289097
4.170000	36.289097
4.180000	36.289097
4.190000	36.289097
4.200000	36.289097
4.210000	36.289097
4.220000	36.289097
4.230000	36.289097
4.240000	36.289097
4.250000	36.289097
4.260000	36.289097
4.270000	36.289097
4.280000	36.289097
4.290000	36.289097
4.300000	36.289097
4.310000	36.289097
4.320000	36.289097
4.330000	36.289097
4.340000	36.289097
4.350000	36.289097
4.360000	36.289097
4.370000	36.289097
4.380000	36.289097
4.390000	36.289097
4.400000	36.289097
4.410000	36.289097
4.420000	36.289097
4.430000	36.289097
4.440000	36.289097
4.450000	36.289097
4.460000	36.289097
4.470000	36.289097
4.480000	36.289097
4.490000	36.289097
4.500000	37.373491
4.510000	37.373491
4.520000	37.373491
4.530000	37.373491
4.540000	37.373491
4.550000	37.373491
4.560000	37.373491
4.570000	37.373491
4.580000	37.373491
4.590000	37.373491
4.600000	37.373491
4.610000	37.373491
4.620000	37.373491
4.630000	37.373491
4.640000	37.373491
4.650000	37.373491
4.660000	37.373491
4.670000	37.373491
4.680000	37.373491
4.690000	37.373491
4.700000	37.373491
4.710000	37.373491
4.720000	37.373491
4.730000	37.373491
4.740000	37.373491
4.750000	37.373491
4.760000	37.373491
4.770000	37.373491
4.780000	37.373491
4.790000	37.373491
4.800000	37.373491
4.810000	37.373491
4.820000	37.373491
4.830000	37.373491
4.840000	37.373491
4.850000	37.373491
4.860000	37.373491
4.870000	37.373491
4.880000	37.373491
4.890000	37.373491
4.900000	37.373491
4.910000	37.373491
4.920000	37.373491
4.930000	37.373491
4.940000	37.373491
4.950000	37.373491
4.960000	37.373491
4.970000	37.373491
4.980000	37.373491
4.990000	37.373491
5.000000	38.131397
5.010000	38.131397
5.020000	38.131397
5.030000	38.131397
5.040000	38.131397
5.050000	38.131397
5.060000	38.131397
5.070000	38.131397
5.080000	38.131397
5.090000	38.131397
5.100000	38.131397
5.110000	38.131397
5.120000	38.131397
5.130000	38.131397
5.140000	38.131397
5.150000	38.131397
5.160000	38.131397
5.170000	38.131397
5.180000	38.131397
5.190000	38.131397
5.200000	38.131397
5.210000	38.131397
5.220000	38.131397
5.230000	38.131397
5.240000	38.131397
5.250000	38.131397
5.260000	38.131397
5.270000	38.131397
5.280000	38.131397
5.290000	38.131397
5.300000	38.131397
5.310000	38.131397
5.320000	38.131397
5.330000	38.131397
5.340000	38.131397
5.350000	38.131397
5.360000	38.131397
5.370000	38.131397
5.380000	38.131397
5.390000	38.131397
5.400000	38.131397
5.410000	38.131397
5.420000	38.131397
5.430000	38.131397
5.440000	38.131397
5.450000	38.131397
5.460000	38.131397
5.470000	38.131397
5.480000	38.131397
5.490000	38.131397
5.500000	38.632466
5.510000	38.632466
5.520000	38.632466
5.530000	38.632466
5.540000	38.632466
5.550000	38.632466
5.560000	38.632466
5.570000	38.632466
5.580000	38.632466
5.590000	38.632466
5.600000	38.632466
5.610000	38.632466
5.620000	38.632466
5.630000	38.632466
5.640000	38.632466
5.650000	38.632466
5.660000	38.632466
5.670000	38.632466
5.680000	38.632466
5.690000	38.632466
5.700000	38.632466
5.710000	38.632466
5.720000	38.632466
5.730000	38.632466
5.740000	38.632466
5.750000	38.632466
5.760000	38.632466
5.770000	38.632466
5.780000	38.632466
5.790000	38.632466
5.800000	38.632466
5.810000	38.632466
5.820000	38.632466
5.830000	38.632466
5.840000	38.632466
5.850000	38.632466
5.860000	38.632466
5.870000	38.632466
5.880000	38.632466
5.890000	38.632466
5.900000	38.632466
5.910000	38.632466
5.920000	38.632466
5.930000	38.632466
5.940000	38.632466
5.950000	38.632466
5.960000	38.632466
5.970000	38.632466
5.980000	38.632466
5.990000	38.632466
6.000000	38.942647
6.010000	38.942647
6.020000	38.942647
6.030000	38.942647
6.040000	38.942647
6.050000	38.942647
6.060000	38.942647
6.070000	38.942647
6.080000	38.942647
6.090000	38.942647
6.100000	38.942647
6.110000	38.942647
6.120000	38.942647
6.130000	38.942647
6.140000	38.942647
6.150000	38.942647
6.160000	38.942647
6.170000	38.942647
6.180000	38.942647
6.190000	38.942647
6.200000	38.942647
6.210000	38.942647
6.220000	38.942647
6.230000	38.942647
6.240000	38.942647
6.250000	38.942647
6.260000	38.942647
6.270000	38.942647
6.280000	38.942647
6.290000	38.942647
6.300000	38.942647
6.310000	38.942647
6.320000	38.942647
6.330000	38.942647
6.340000	38.942647
6.350000	38.942647
6.360000	38.942647
6.370000	38.942647
6.380000	38.942647
6.390000	38.942647
6.400000	38.942647
6.410000	38.942647
6.420000	38.942647
6.430000	38.942647
6.440000	38.942647
6.450000	38.942647
6.460000	38.942647
6.470000	38.942647
6.480000	38.942647
6.490000	38.942647
6.500000	39.108980
6.510000	39.108980
6.520000	39.108980
6.530000	39.108980
6.540000	39.108980
6.550000	39.108980
6.560000	39.108980
6.570000	39.108980
6.580000	39.108980
6.590000	39.108980
6.600000	39.108980
6.610000	39.108980
6.620000	39.108980
6.630000	39.108980
6.640000	39.108980
6.650000	39.108980
6.660000	39.108980
6.670000	39.108980
6.680000	39.108980
6.690000	39.108980
6.700000	39.108980
6.710000	39.108980
6.720000	39.108980
6.730000	39.108980
6.740000	39.108980
6.750000	39.108980
6.760000	39.108980
6.770000	39.108980
6.780000	39.108980
6.790000	39.108980
6.800000	39.108980
6.810000	39.108980
6.820000	39.108980
6.830000	39.108980
6.840000	39.108980
6.850000	39.108980
6.860000	39.108980
6.870000	39.108980
6.880000	39.108980
6.890000	39.108980
6.900000	39.108980
6.910000	39.108980
6.920000	39.108980
6.930000	39.108980
6.940000	39.108980
6.950000	39.108980
6.960000	39.108980
6.970000	39.108980
6.980000	39.108980
6.990000	39.108980
7.000000	39.162850
7.010000	39.162850
7.020000	39.162850
7.030000	39.162850
7.040000	39.162850
7.050000	39.162850
7.060000	39.162850
7.070000	39.162850
7.080000	39.162850
7.090000	39.162850
7.100000	39.162850
7.110000	39.162850
7.120000	39.162850
7.130000	39.162850
7.140000	39.162850
7.150000	39.162850
7.160000	39.162850
7.170000	39.162850
7.180000	39.162850
7.190000	39.162850
7.200000	39.162850
7.210000	39.162850
7.220000	39.162850
7.230000	39.162850
7.240000	39.162850
7.250000	39.162850
7.260000	39.162850
7.270000	39.162850
7.280000	39.162850
7.290000	39.162850
7.300000	39.162850
7.310000	39.162850
7.320000	39.162850
7.330000	39.162850
7.340000	39.162850
7.350000	39.162850
7.360000	39.162850
7.370000	39.162850
7.380000	39.162850
7.390000	39.162850
7.400000	39.162850
7.410000	39.162850
7.420000	39.162850
7.430000	39.162850
7.440000	39.162850
7.450000	39.162850
7.460000	39.162850
7.470000	39.162850
7.480000	39.162850
7.490000	39.162850
7.500000	39.131553
7.510000	39.131553
7.520000	39.131553
7.530000	39.131553
7.540000	39.131553
7.550000	39.131553
7.560000	39.131553
7.570000	39.131553
7.580000	39.131553
7.590000	39.131553
7.600000	39.131553
7.610000	39.131553
7.620000	39.131553
7.630000	39.131553
7.640000	39.131553
7.650000	39.131553
7.660000	39.131553
7.670000	39.131553
7.680000	39.131553
7.690000	39.131553
7.700000	39.131553
7.710000	39.131553
7.720000	39.131553
7.730000	39.131553
7.740000	39.131553
7.750000	39.131553
7.760000	39.131553
7.770000	39.131553
7.780000	39.131553
7.790000	39.131553
7.800000	39.131553
7.810000	39.131553
7.820000	39.131553
7.830000	39.131553
7.840000	39.131553
7.850000	39.131553
7.860000	39.131553
7.870000	39.131553
7.880000	39.131553
7.890000	39.131553
7.900000	39.131553
7.910000	39.131553
7.920000	39.131553
7.930000	39.131553
7.940000	39.131553
7.950000	39.131553
7.960000	39.131553
7.970000	39.131553
7.980000	39.131553
7.990000	39.131553
8.000000	39.035061
8.010000	39.035061
8.020000	39.035061
8.030000	39.035061
8.040000	39.035061
8.050000	39.035061
8.060000	39.035061
8.070000	39.035061
8.080000	39.035061
8.090000	39.035061
8.100000	39.035061
8.110000	39.035061
8.120000	39.035061
8.130000	39.035061
8.140000	39.035061
8.150000	39.035061
8.160000	39.035061
8.170000	39.035061
8.180000	39.035061
8.190000	39.035061
8.200000	39.035061
8.210000	39.035061
8.220000	39.035061
8.230000	39.035061
8.240000	39.035061
8.250000	39.035061
8.260000	39.035061
8.270000	39.035061
8.280000	39.035061
8.290000	39.035061
8.300000	39.035061
8.310000	39.035061
8.320000	39.035061
8.330000	39.035061
8.340000	39.035061
8.350000	39.035061
8.360000	39.035061
8.370000	39.035061
8.380000	39.035061
8.390000	39.035061
8.400000	39.035061
8.410000	39.035061
8.420000	39.035061
8.430000	39.035061
8.440000	39.035061
8.450000	39.035061
8.460000	39.035061
8.470000	39.035061
8.480000	39.035061
8.490000	39.035061
8.500000	38.891983
8.510000	38.891983
8.520000	38.891983
8.530000	38.891983
8.540000	38.891983
8.550000	38.891983
8.560000	38.891983
8.570000	38.891983
8.580000	38.891983
8.590000	38.891983
8.600000	38.891983
8.610000	38.891983
8.620000	38.891983
8.630000	38.891983
8.640000	38.891983
8.650000	38.891983
8.660000	38.891983
8.670000	38.891983
8.680000	38.891983
8.690000	38.891983
8.700000	38.891983
8.710000	38.891983
8.720000	38.891983
8.730000	38.891983
8.740000	38.891983
8.750000	38.891983
8.760000	38.891983
8.770000	38.891983
8.780000	38.891983
8.790000	38.891983
8.800000	38.891983
8.810000	38.891983
8.820000	38.891983
8.830000	38.891983
8.840000	38.891983
8.850000	38.891983
8.860000	38.891983
8.870000	38.891983
8.880000	38.891983
8.890000	38.891983
8.900000	38.891983
8.910000	38.891983
8.920000	38.891983
8.930000	38.891983
8.940000	38.891983
8.950000	38.891983
8.960000	38.891983
8.970000	38.891983
8.980000	38.891983
8.990000	38.891983
9.000000	38.716342
9.010000	38.716342
9.020000	38.716342
9.030000	38.716342
9.040000	38.716342
9.050000	38.716342
9.060000	38.716342
9.070000	38.716342
9.080000	38.716342
9.090000	38.716342
9.100000	38.716342
9.110000	38.716342
9.120000	38.716342
9.130000	38.716342
9.140000	38.716342
9.150000	38.716342
9.160000	38.716342
9.170000	38.716342
9.180000	38.716342
9.190000	38.716342
9.200000	38.716342
9.210000	38.716342
9.220000	38.716342
9.230000	38.716342
9.240000	38.716342
9.250000	38.716342
9.260000	38.716342
9.270000	38.716342
9.280000	38.716342
9.290000	38.716342
9.300000	38.716342
9.310000	38.716342
9.320000	38.716342
9.330000	38.716342
9.340000	38.716342
9.350000	38.716342
9.360000	38.716342
9.370000	38.716342
9.380000	38.716342
9.390000	38.716342
9.400000	38.716342
9.410000	38.716342
9.420000	38.716342
9.430000	38.716342
9.440000	38.716342
9.450000	38.716342
9.460000	38.716342
9.470000	38.716342
9.480000	38.716342
9.490000	38.716342
9.500000	38.514153
9.510000	38.514153
9.520000	38.514153
9.530000	38.514153
9.540000	38.514153
9.550000	38.514153
9.560000	38.514153
9.570000	38.514153
9.580000	38.514153
9.590000	38.514153
9.600000	38.514153
9.610000	38.514153
9.620000	38.514153
9.630000	38.514153
9.640000	38.514153
9.650000	38.514153
9.660000	38.514153
9.670000	38.514153
9.680000	38.514153
9.690000	38.514153
9.700000	38.514153
9.710000	38.514153
9.720000	38.514153
9.730000	38.514153
9.740000	38.514153
9.750000	38.514153
9.760000	38.514153
