LabVIEW Measurement	
Writer_Version	2
Reader_Version	2
Separator	Tab
Decimal_Separator	.
Multi_Headings	No
X_Columns	One
Time_Pref	Absolute
Operator	biomech-dyno
Date	2023/04/27
Time	17:41:55.9338632999999876419
***End_of_Header***	
	
Channels	1	
Samples	10	
Date	2023/04/27	
Time	19:16:43.1838289999998582111	
X_Dimension	Time	
X0	0.0000000000000000E+0	
Delta_X	0.010000	
***End_of_Header***		
X_Value	Untitled	Comment
0.000000	25.064637
0.010000	25.064637
0.020000	25.064637
0.030000	25.064637
0.040000	25.064637
0.050000	25.064637
0.060000	25.064637
0.070000	25.064637
0.080000	25.064637
0.090000	25.064637
0.100000	25.064637
0.110000	25.064637
0.120000	25.064637
0.130000	25.064637
0.140000	25.064637
0.150000	25.064637
0.160000	25.064637
0.170000	25.064637
0.180000	25.064637
0.190000	25.064637
0.200000	25.064637
0.210000	25.064637
0.220000	25.064637
0.230000	25.064637
0.240000	25.064637
0.250000	25.064637
0.260000	25.064637
0.270000	25.064637
0.280000	25.064637
0.290000	25.064637
0.300000	25.064637
0.310000	25.064637
0.320000	25.064637
0.330000	25.064637
0.340000	25.064637
0.350000	25.064637
0.360000	25.064637
0.370000	25.064637
0.380000	25.064637
0.390000	25.064637
0.400000	25.064637
0.410000	25.064637
0.420000	25.064637
0.430000	25.064637
0.440000	25.064637
0.450000	25.064637
0.460000	25.064637
0.470000	25.064637
0.480000	25.064637
0.490000	25.064637
0.500000	25.086023
0.510000	25.086023
0.520000	25.086023
0.530000	25.086023
0.540000	25.086023
0.550000	25.086023
0.560000	25.086023
0.570000	25.086023
0.580000	25.086023
0.590000	25.086023
0.600000	25.086023
0.610000	25.086023
0.620000	25.086023
0.630000	25.086023
0.640000	25.086023
0.650000	25.086023
0.660000	25.086023
0.670000	25.086023
0.680000	25.086023
0.690000	25.086023
0.700000	25.086023
0.710000	25.086023
0.720000	25.086023
0.730000	25.086023
0.740000	25.086023
0.750000	25.086023
0.760000	25.086023
0.770000	25.086023
0.780000	25.086023
0.790000	25.086023
0.800000	25.086023
0.810000	25.086023
0.820000	25.086023
0.830000	25.086023
0.840000	25.086023
0.850000	25.086023
0.860000	25.086023
0.870000	25.086023
0.880000	25.086023
0.890000	25.086023
0.900000	25.086023
0.910000	25.086023
0.920000	25.086023
0.930000	25.086023
0.940000	25.086023
0.950000	25.086023
0.960000	25.086023
0.970000	25.086023
0.980000	25.086023
0.990000	25.086023
1.000000	25.350948
1.010000	25.350948
1.020000	25.350948
1.030000	25.350948
1.040000	25.350948
1.050000	25.350948
1.060000	25.350948
1.070000	25.350948
1.080000	25.350948
1.090000	25.350948
1.100000	25.350948
1.110000	25.350948
1.120000	25.350948
1.130000	25.350948
1.140000	25.350948
1.150000	25.350948
1.160000	25.350948
1.170000	25.350948
1.180000	25.350948
1.190000	25.350948
1.200000	25.350948
1.210000	25.350948
1.220000	25.350948
1.230000	25.350948
1.240000	25.350948
1.250000	25.350948
1.260000	25.350948
1.270000	25.350948
1.280000	25.350948
1.290000	25.350948
1.300000	25.350948
1.310000	25.350948
1.320000	25.350948
1.330000	25.350948
1.340000	25.350948
1.350000	25.350948
1.360000	25.350948
1.370000	25.350948
1.380000	25.350948
1.390000	25.350948
1.400000	25.350948
1.410000	25.350948
1.420000	25.350948
1.430000	25.350948
1.440000	25.350948
1.450000	25.350948
1.460000	25.350948
1.470000	25.350948
1.480000	25.350948
1.490000	25.350948
1.500000	25.974458
1.510000	25.974458
1.520000	25.974458
1.530000	25.974458
1.540000	25.974458
1.550000	25.974458
1.560000	25.974458
1.570000	25.974458
1.580000	25.974458
1.590000	25.974458
1.600000	25.974458
1.610000	25.974458
1.620000	25.974458
1.630000	25.974458
1.640000	25.974458
1.650000	25.974458
1.660000	25.974458
1.670000	25.974458
1.680000	25.974458
1.690000	25.974458
1.700000	25.974458
1.710000	25.974458
1.720000	25.974458
1.730000	25.974458
1.740000	25.974458
1.750000	25.974458
1.760000	25.974458
1.770000	25.974458
1.780000	25.974458
1.790000	25.974458
1.800000	25.974458
1.810000	25.974458
1.820000	25.974458
1.830000	25.974458
1.840000	25.974458
1.850000	25.974458
1.860000	25.974458
1.870000	25.974458
1.880000	25.974458
1.890000	25.974458
1.900000	25.974458
1.910000	25.974458
1.920000	25.974458
1.930000	25.974458
1.940000	25.974458
1.950000	25.974458
1.960000	25.974458
1.970000	25.974458
1.980000	25.974458
1.990000	25.974458
2.000000	26.894890
2.010000	26.894890
2.020000	26.894890
2.030000	26.894890
2.040000	26.894890
2.050000	26.894890
2.060000	26.894890
2.070000	26.894890
2.080000	26.894890
2.090000	26.894890
2.100000	26.894890
2.110000	26.894890
2.120000	26.894890
2.130000	26.894890
2.140000	26.894890
2.150000	26.894890
2.160000	26.894890
2.170000	26.894890
2.180000	26.894890
2.190000	26.894890
2.200000	26.894890
2.210000	26.894890
2.220000	26.894890
2.230000	26.894890
2.240000	26.894890
2.250000	26.894890
2.260000	26.894890
2.270000	26.894890
2.280000	26.894890
2.290000	26.894890
2.300000	26.894890
2.310000	26.894890
2.320000	26.894890
2.330000	26.894890
2.340000	26.894890
2.350000	26.894890
2.360000	26.894890
2.370000	26.894890
2.380000	26.894890
2.390000	26.894890
2.400000	26.894890
2.410000	26.894890
2.420000	26.894890
2.430000	26.894890
2.440000	26.894890
2.450000	26.894890
2.460000	26.894890
2.470000	26.894890
2.480000	26.894890
2.490000	26.894890
2.500000	28.032817
2.510000	28.032817
2.520000	28.032817
2.530000	28.032817
2.540000	28.032817
2.550000	28.032817
2.560000	28.032817
2.570000	28.032817
2.580000	28.032817
2.590000	28.032817
2.600000	28.032817
2.610000	28.032817
2.620000	28.032817
2.630000	28.032817
2.640000	28.032817
2.650000	28.032817
2.660000	28.032817
2.670000	28.032817
2.680000	28.032817
2.690000	28.032817
2.700000	28.032817
2.710000	28.032817
2.720000	28.032817
2.730000	28.032817
2.740000	28.032817
2.750000	28.032817
2.760000	28.032817
2.770000	28.032817
2.780000	28.032817
2.790000	28.032817
2.800000	28.032817
2.810000	28.032817
2.820000	28.032817
2.830000	28.032817
2.840000	28.032817
2.850000	28.032817
2.860000	28.032817
2.870000	28.032817
2.880000	28.032817
2.890000	28.032817
2.900000	28.032817
2.910000	28.032817
2.920000	28.032817
2.930000	28.032817
2.940000	28.032817
2.950000	28.032817
2.960000	28.032817
2.970000	28.032817
2.980000	28.032817
2.990000	28.032817
3.000000	29.294669
3.010000	29.294669
3.020000	29.294669
3.030000	29.294669
3.040000	29.294669
3.050000	29.294669
3.060000	29.294669
3.070000	29.294669
3.080000	29.294669
3.090000	29.294669
3.100000	29.294669
3.110000	29.294669
3.120000	29.294669
3.130000	29.294669
3.140000	29.294669
3.150000	29.294669
3.160000	29.294669
3.170000	29.294669
3.180000	29.294669
3.190000	29.294669
3.200000	29.294669
3.210000	29.294669
3.220000	29.294669
3.230000	29.294669
3.240000	29.294669
3.250000	29.294669
3.260000	29.294669
3.270000	29.294669
3.280000	29.294669
3.290000	29.294669
3.300000	29.294669
3.310000	29.294669
3.320000	29.294669
3.330000	29.294669
3.340000	29.294669
3.350000	29.294669
3.360000	29.294669
3.370000	29.294669
3.380000	29.294669
3.390000	29.294669
3.400000	29.294669
3.410000	29.294669
3.420000	29.294669
3.430000	29.294669
3.440000	29.294669
3.450000	29.294669
3.460000	29.294669
3.470000	29.294669
3.480000	29.294669
3.490000	29.294669
3.500000	30.411066
3.510000	30.411066
3.520000	30.411066
3.530000	30.411066
3.540000	30.411066
3.550000	30.411066
3.560000	30.411066
3.570000	30.411066
3.580000	30.411066
3.590000	30.411066
3.600000	30.411066
3.610000	30.411066
3.620000	30.411066
3.630000	30.411066
3.640000	30.411066
3.650000	30.411066
3.660000	30.411066
3.670000	30.411066
3.680000	30.411066
3.690000	30.411066
3.700000	30.411066
3.710000	30.411066
3.720000	30.411066
3.730000	30.411066
3.740000	30.411066
3.750000	30.411066
3.760000	30.411066
3.770000	30.411066
3.780000	30.411066
3.790000	30.411066
3.800000	30.411066
3.810000	30.411066
3.820000	30.411066
3.830000	30.411066
3.840000	30.411066
3.850000	30.411066
3.860000	30.411066
3.870000	30.411066
3.880000	30.411066
3.890000	30.411066
3.900000	30.411066
3.910000	30.411066
3.920000	30.411066
3.930000	30.411066
3.940000	30.411066
3.950000	30.411066
3.960000	30.411066
3.970000	30.411066
3.980000	30.411066
3.990000	30.411066
4.000000	31.257424
4.010000	31.257424
4.020000	31.257424
4.030000	31.257424
4.040000	31.257424
4.050000	31.257424
4.060000	31.257424
4.070000	31.257424
4.080000	31.257424
4.090000	31.257424
4.100000	31.257424
4.110000	31.257424
4.120000	31.257424
4.130000	31.257424
4.140000	31.257424
4.150000	31.257424
4.160000	31.257424
4.170000	31.257424
4.180000	31.257424
4.190000	31.257424
4.200000	31.257424
4.210000	31.257424
4.220000	31.257424
4.230000	31.257424
4.240000	31.257424
4.250000	31.257424
4.260000	31.257424
4.270000	31.257424
4.280000	31.257424
4.290000	31.257424
4.300000	31.257424
4.310000	31.257424
4.320000	31.257424
4.330000	31.257424
4.340000	31.257424
4.350000	31.257424
4.360000	31.257424
4.370000	31.257424
4.380000	31.257424
4.390000	31.257424
4.400000	31.257424
4.410000	31.257424
4.420000	31.257424
4.430000	31.257424
4.440000	31.257424
4.450000	31.257424
4.460000	31.257424
4.470000	31.257424
4.480000	31.257424
4.490000	31.257424
4.500000	31.860243
4.510000	31.860243
4.520000	31.860243
4.530000	31.860243
4.540000	31.860243
4.550000	31.860243
4.560000	31.860243
4.570000	31.860243
4.580000	31.860243
4.590000	31.860243
4.600000	31.860243
4.610000	31.860243
4.620000	31.860243
4.630000	31.860243
4.640000	31.860243
4.650000	31.860243
4.660000	31.860243
4.670000	31.860243
4.680000	31.860243
4.690000	31.860243
4.700000	31.860243
4.710000	31.860243
4.720000	31.860243
4.730000	31.860243
4.740000	31.860243
4.750000	31.860243
4.760000	31.860243
4.770000	31.860243
4.780000	31.860243
4.790000	31.860243
4.800000	31.860243
4.810000	31.860243
4.820000	31.860243
4.830000	31.860243
4.840000	31.860243
4.850000	31.860243
4.860000	31.860243
4.870000	31.860243
4.880000	31.860243
4.890000	31.860243
4.900000	31.860243
4.910000	31.860243
4.920000	31.860243
4.930000	31.860243
4.940000	31.860243
4.950000	31.860243
4.960000	31.860243
4.970000	31.860243
4.980000	31.860243
4.990000	31.860243
5.000000	32.281100
5.010000	32.281100
5.020000	32.281100
5.030000	32.281100
5.040000	32.281100
5.050000	32.281100
5.060000	32.281100
5.070000	32.281100
5.080000	32.281100
5.090000	32.281100
5.100000	32.281100
5.110000	32.281100
5.120000	32.281100
5.130000	32.281100
5.140000	32.281100
5.150000	32.281100
5.160000	32.281100
5.170000	32.281100
5.180000	32.281100
5.190000	32.281100
5.200000	32.281100
5.210000	32.281100
5.220000	32.281100
5.230000	32.281100
5.240000	32.281100
5.250000	32.281100
5.260000	32.281100
5.270000	32.281100
5.280000	32.281100
5.290000	32.281100
5.300000	32.281100
5.310000	32.281100
5.320000	32.281100
5.330000	32.281100
5.340000	32.281100
5.350000	32.281100
5.360000	32.281100
5.370000	32.281100
5.380000	32.281100
5.390000	32.281100
5.400000	32.281100
5.410000	32.281100
5.420000	32.281100
5.430000	32.281100
5.440000	32.281100
5.450000	32.281100
5.460000	32.281100
5.470000	32.281100
5.480000	32.281100
5.490000	32.281100
5.500000	32.559825
5.510000	32.559825
5.520000	32.559825
5.530000	32.559825
5.540000	32.559825
5.550000	32.559825
5.560000	32.559825
5.570000	32.559825
5.580000	32.559825
5.590000	32.559825
5.600000	32.559825
5.610000	32.559825
5.620000	32.559825
5.630000	32.559825
5.640000	32.559825
5.650000	32.559825
5.660000	32.559825
5.670000	32.559825
5.680000	32.559825
5.690000	32.559825
5.700000	32.559825
5.710000	32.559825
5.720000	32.559825
5.730000	32.559825
5.740000	32.559825
5.750000	32.559825
5.760000	32.559825
5.770000	32.559825
5.780000	32.559825
5.790000	32.559825
5.800000	32.559825
5.810000	32.559825
5.820000	32.559825
5.830000	32.559825
5.840000	32.559825
5.850000	32.559825
5.860000	32.559825
5.870000	32.559825
5.880000	32.559825
5.890000	32.559825
5.900000	32.559825
5.910000	32.559825
5.920000	32.559825
5.930000	32.559825
5.940000	32.559825
5.950000	32.559825
5.960000	32.559825
5.970000	32.559825
5.980000	32.559825
5.990000	32.559825
6.000000	32.733650
6.010000	32.733650
6.020000	32.733650
6.030000	32.733650
6.040000	32.733650
6.050000	32.733650
6.060000	32.733650
6.070000	32.733650
6.080000	32.733650
6.090000	32.733650
6.100000	32.733650
6.110000	32.733650
6.120000	32.733650
6.130000	32.733650
6.140000	32.733650
6.150000	32.733650
6.160000	32.733650
6.170000	32.733650
6.180000	32.733650
6.190000	32.733650
6.200000	32.733650
6.210000	32.733650
6.220000	32.733650
6.230000	32.733650
6.240000	32.733650
6.250000	32.733650
6.260000	32.733650
6.270000	32.733650
6.280000	32.733650
6.290000	32.733650
6.300000	32.733650
6.310000	32.733650
6.320000	32.733650
6.330000	32.733650
6.340000	32.733650
6.350000	32.733650
6.360000	32.733650
6.370000	32.733650
6.380000	32.733650
6.390000	32.733650
6.400000	32.733650
6.410000	32.733650
6.420000	32.733650
6.430000	32.733650
6.440000	32.733650
6.450000	32.733650
6.460000	32.733650
6.470000	32.733650
6.480000	32.733650
6.490000	32.733650
6.500000	32.827070
6.510000	32.827070
6.520000	32.827070
6.530000	32.827070
6.540000	32.827070
6.550000	32.827070
6.560000	32.827070
6.570000	32.827070
6.580000	32.827070
6.590000	32.827070
6.600000	32.827070
6.610000	32.827070
6.620000	32.827070
6.630000	32.827070
6.640000	32.827070
6.650000	32.827070
6.660000	32.827070
6.670000	32.827070
6.680000	32.827070
6.690000	32.827070
6.700000	32.827070
6.710000	32.827070
6.720000	32.827070
6.730000	32.827070
6.740000	32.827070
6.750000	32.827070
6.760000	32.827070
6.770000	32.827070
6.780000	32.827070
6.790000	32.827070
6.800000	32.827070
6.810000	32.827070
6.820000	32.827070
6.830000	32.827070
6.840000	32.827070
6.850000	32.827070
6.860000	32.827070
6.870000	32.827070
6.880000	32.827070
6.890000	32.827070
6.900000	32.827070
6.910000	32.827070
6.920000	32.827070
6.930000	32.827070
6.940000	32.827070
6.950000	32.827070
6.960000	32.827070
6.970000	32.827070
6.980000	32.827070
6.990000	32.827070
7.000000	32.859293
7.010000	32.859293
7.020000	32.859293
7.030000	32.859293
7.040000	32.859293
7.050000	32.859293
7.060000	32.859293
7.070000	32.859293
7.080000	32.859293
7.090000	32.859293
7.100000	32.859293
7.110000	32.859293
7.120000	32.859293
7.130000	32.859293
7.140000	32.859293
7.150000	32.859293
7.160000	32.859293
7.170000	32.859293
7.180000	32.859293
7.190000	32.859293
7.200000	32.859293
7.210000	32.859293
7.220000	32.859293
7.230000	32.859293
7.240000	32.859293
7.250000	32.859293
7.260000	32.859293
7.270000	32.859293
7.280000	32.859293
7.290000	32.859293
7.300000	32.859293
7.310000	32.859293
7.320000	32.859293
7.330000	32.859293
7.340000	32.859293
7.350000	32.859293
7.360000	32.859293
7.370000	32.859293
7.380000	32.859293
7.390000	32.859293
7.400000	32.859293
7.410000	32.859293
7.420000	32.859293
7.430000	32.859293
7.440000	32.859293
7.450000	32.859293
7.460000	32.859293
7.470000	32.859293
7.480000	32.859293
7.490000	32.859293
7.500000	32.844778
7.510000	32.844778
7.520000	32.844778
7.530000	32.844778
7.540000	32.844778
7.550000	32.844778
7.560000	32.844778
7.570000	32.844778
7.580000	32.844778
7.590000	32.844778
7.600000	32.844778
7.610000	32.844778
7.620000	32.844778
7.630000	32.844778
7.640000	32.844778
7.650000	32.844778
7.660000	32.844778
7.670000	32.844778
7.680000	32.844778
7.690000	32.844778
7.700000	32.844778
7.710000	32.844778
7.720000	32.844778
7.730000	32.844778
7.740000	32.844778
7.750000	32.844778
7.760000	32.844778
7.770000	32.844778
7.780000	32.844778
7.790000	32.844778
7.800000	32.844778
7.810000	32.844778
7.820000	32.844778
7.830000	32.844778
7.840000	32.844778
7.850000	32.844778
7.860000	32.844778
7.870000	32.844778
7.880000	32.844778
7.890000	32.844778
7.900000	32.844778
7.910000	32.844778
7.920000	32.844778
7.930000	32.844778
7.940000	32.844778
7.950000	32.844778
7.960000	32.844778
7.970000	32.844778
7.980000	32.844778
7.990000	32.844778
8.000000	32.794883
8.010000	32.794883
8.020000	32.794883
8.030000	32.794883
8.040000	32.794883
8.050000	32.794883
8.060000	32.794883
8.070000	32.794883
8.080000	32.794883
8.090000	32.794883
8.100000	32.794883
8.110000	32.794883
8.120000	32.794883
8.130000	32.794883
8.140000	32.794883
8.150000	32.794883
8.160000	32.794883
8.170000	32.794883
8.180000	32.794883
8.190000	32.794883
8.200000	32.794883
8.210000	32.794883
8.220000	32.794883
8.230000	32.794883
8.240000	32.794883
8.250000	32.794883
8.260000	32.794883
8.270000	32.794883
8.280000	32.794883
8.290000	32.794883
8.300000	32.794883
8.310000	32.794883
8.320000	32.794883
8.330000	32.794883
8.340000	32.794883
8.350000	32.794883
8.360000	32.794883
8.370000	32.794883
8.380000	32.794883
8.390000	32.794883
8.400000	32.794883
8.410000	32.794883
8.420000	32.794883
8.430000	32.794883
8.440000	32.794883
8.450000	32.794883
8.460000	32.794883
8.470000	32.794883
8.480000	32.794883
8.490000	32.794883
8.500000	32.718168
8.510000	32.718168
8.520000	32.718168
8.530000	32.718168
8.540000	32.718168
8.550000	32.718168
8.560000	32.718168
8.570000	32.718168
8.580000	32.718168
8.590000	32.718168
8.600000	32.718168
8.610000	32.718168
8.620000	32.718168
8.630000	32.718168
8.640000	32.718168
8.650000	32.718168
8.660000	32.718168
8.670000	32.718168
8.680000	32.718168
8.690000	32.718168
8.700000	32.718168
8.710000	32.718168
8.720000	32.718168
8.730000	32.718168
8.740000	32.718168
8.750000	32.718168
8.760000	32.718168
8.770000	32.718168
8.780000	32.718168
8.790000	32.718168
8.800000	32.718168
8.810000	32.718168
8.820000	32.718168
8.830000	32.718168
8.840000	32.718168
8.850000	32.718168
8.860000	32.718168
8.870000	32.718168
8.880000	32.718168
8.890000	32.718168
8.900000	32.718168
8.910000	32.718168
8.920000	32.718168
8.930000	32.718168
8.940000	32.718168
8.950000	32.718168
8.960000	32.718168
8.970000	32.718168
8.980000	32.718168
8.990000	32.718168
9.000000	32.620261
9.010000	32.620261
9.020000	32.620261
9.030000	32.620261
9.040000	32.620261
9.050000	32.620261
9.060000	32.620261
9.070000	32.620261
9.080000	32.620261
9.090000	32.620261
9.100000	32.620261
9.110000	32.620261
9.120000	32.620261
9.130000	32.620261
9.140000	32.620261
9.150000	32.620261
9.160000	32.620261
9.170000	32.620261
9.180000	32.620261
9.190000	32.620261
9.200000	32.620261
9.210000	32.620261
9.220000	32.620261
9.230000	32.620261
9.240000	32.620261
9.250000	32.620261
9.260000	32.620261
9.270000	32.620261
9.280000	32.620261
9.290000	32.620261
9.300000	32.620261
9.310000	32.620261
9.320000	32.620261
9.330000	32.620261
9.340000	32.620261
9.350000	32.620261
9.360000	32.620261
9.370000	32.620261
9.380000	32.620261
9.390000	32.620261
9.400000	32.620261
9.410000	32.620261
9.420000	32.620261
9.430000	32.620261
9.440000	32.620261
9.450000	32.620261
9.460000	32.620261
9.470000	32.620261
9.480000	32.620261
9.490000	32.620261
9.500000	32.509385
9.510000	32.509385
9.520000	32.509385
9.530000	32.509385
9.540000	32.509385
9.550000	32.509385
9.560000	32.509385
9.570000	32.509385
9.580000	32.509385
9.590000	32.509385
9.600000	32.509385
9.610000	32.509385
9.620000	32.509385
9.630000	32.509385
9.640000	32.509385
9.650000	32.509385
9.660000	32.509385
9.670000	32.509385
9.680000	32.509385
9.690000	32.509385
9.700000	32.509385
9.710000	32.509385
9.720000	32.509385
9.730000	32.509385
9.740000	32.509385
9.750000	32.509385
9.760000	32.509385
